EEG 1,EEG 2,EEG 3,EEG 4,EEG 5,EEG 6,EEG 7,EEG 8,Accelerometer X,Accelerometer Y,Accelerometer Z,Gyroscope X,Gyroscope Y,Gyroscope Z,Battery Level,Counter,Validation Indicator
191779.500,309368.906,444633.156,711182.313,197043.422,211365.891,229032.344,194341.719,-0.067,0.999,0.204,1.648,1.160,3.204,73.333,20801.000,1.000
191603.906,309157.375,444404.188,711161.750,196564.563,211232.484,228728.359,194244.453,-0.066,0.999,0.202,1.526,1.190,3.235,73.333,20802.000,1.000
191429.734,308892.813,444240.594,711157.063,196373.313,211178.938,228641.734,194255.094,-0.062,0.999,0.201,1.404,1.343,3.235,73.333,20803.000,1.000
191410.422,308859.563,444283.688,711167.375,196646.984,211236.516,228823.844,194325.188,-0.061,0.999,0.203,1.251,1.587,3.174,73.333,20804.000,1.000
191620.266,309142.000,444497.000,711183.438,197034.297,211343.000,229044.859,194369.703,-0.060,0.996,0.204,1.190,1.831,3.113,73.333,20805.000,1.000
191771.984,309370.406,444599.813,711183.625,197043.063,211360.703,229028.500,194342.703,-0.058,0.994,0.204,1.068,2.228,3.174,73.333,20806.000,1.000
191595.594,309156.281,444370.031,711161.625,196561.422,211224.266,228722.641,194243.188,-0.059,0.993,0.204,1.007,2.441,3.021,73.333,20807.000,1.000
191421.250,308894.063,444206.156,711156.125,196366.156,211171.781,228636.359,194252.672,-0.059,0.994,0.204,1.129,2.594,3.021,73.333,20808.000,1.000
191405.063,308867.250,444256.406,711165.938,196646.188,211238.297,228827.781,194329.469,-0.060,0.996,0.207,0.977,2.808,2.838,73.333,20809.000,1.000
191621.328,309155.750,444477.063,711183.438,197035.828,211350.141,229055.141,194379.813,-0.061,0.994,0.207,0.854,2.930,2.686,73.333,20810.000,1.000
191767.156,309382.219,444576.125,711183.750,197037.156,211367.313,229030.375,194344.938,-0.062,0.995,0.208,0.885,3.204,2.563,73.333,20811.000,1.000
191590.766,309170.063,444349.031,711162.875,196560.797,211231.500,228719.875,194244.797,-0.066,0.996,0.208,0.793,3.326,2.258,73.333,20812.000,1.000
191423.031,308906.125,444194.531,711161.375,196375.109,211187.156,228639.938,194262.234,-0.064,0.995,0.207,0.793,3.357,2.106,73.333,20813.000,1.000
191397.734,308856.688,444230.406,711170.250,196638.047,211242.406,228815.891,194329.828,-0.065,0.994,0.204,0.793,3.540,2.045,73.333,20814.000,1.000
191608.453,309130.281,444437.094,711184.438,197014.906,211345.500,229034.844,194374.891,-0.065,0.992,0.208,0.763,3.418,1.984,73.333,20815.000,1.000
191755.266,309349.406,444532.500,711183.438,197005.688,211359.094,229009.375,194341.453,-0.065,0.992,0.208,0.793,3.632,1.953,73.333,20816.000,1.000
191594.156,309148.688,444320.969,711164.500,196538.359,211235.344,228718.531,194252.844,-0.064,0.994,0.205,0.946,3.693,1.923,73.333,20817.000,1.000
191422.047,308882.000,444163.063,711158.000,196345.422,211180.094,228636.094,194261.438,-0.063,0.994,0.209,0.763,3.693,1.892,73.333,20818.000,1.000
191393.344,308830.219,444195.344,711165.375,196609.172,211232.313,228812.500,194326.703,-0.063,0.994,0.209,0.763,3.784,1.923,73.333,20819.000,1.000
191604.172,309116.406,444408.031,711181.500,196994.063,211336.922,229035.031,194371.500,-0.063,0.996,0.211,0.793,3.754,1.984,73.333,20820.000,1.000
191753.297,309345.563,444503.250,711183.375,196987.813,211348.266,229008.391,194337.703,-0.063,0.996,0.210,0.793,3.906,2.167,73.333,20821.000,1.000
191583.781,309137.344,444280.000,711162.563,196509.750,211213.094,228705.391,194235.688,-0.063,0.997,0.212,0.824,3.967,2.258,73.333,20822.000,1.000
191413.641,308874.125,444125.438,711156.188,196321.453,211163.469,228627.063,194244.531,-0.066,0.998,0.212,0.732,3.906,2.289,73.333,20823.000,1.000
191389.500,308831.125,444176.844,711167.188,196606.047,211229.453,228821.438,194319.813,-0.069,0.997,0.213,0.580,3.815,2.380,73.333,20824.000,1.000
191603.984,309106.125,444394.094,711185.813,196989.859,211343.797,229049.781,194375.609,-0.070,0.995,0.216,0.580,3.723,2.319,73.333,20825.000,1.000
191752.406,309325.625,444486.469,711186.313,196974.047,211354.703,229018.219,194341.281,-0.069,0.993,0.216,0.610,3.723,2.289,73.333,20826.000,1.000
191590.672,309124.563,444266.781,711163.313,196496.703,211222.203,228714.953,194243.281,-0.070,0.991,0.218,0.610,3.601,2.258,73.333,20827.000,1.000
191425.266,308869.375,444118.094,711157.500,196315.734,211178.672,228641.188,194261.172,-0.072,0.993,0.215,0.488,3.479,2.136,73.333,20828.000,1.000
191397.281,308821.375,444157.719,711167.625,196592.984,211237.141,228824.656,194329.922,-0.073,0.994,0.218,0.397,3.326,2.075,73.333,20829.000,1.000
191608.547,309098.250,444369.594,711184.813,196977.344,211342.188,229044.422,194381.328,-0.074,0.995,0.220,0.549,3.143,1.892,73.333,20830.000,1.000
191751.953,309311.844,444456.875,711182.813,196961.344,211347.203,229008.750,194343.156,-0.072,0.994,0.219,0.519,3.052,1.770,73.333,20831.000,1.000
191583.875,309101.938,444230.656,711162.188,196480.609,211212.469,228700.375,194237.828,-0.073,0.996,0.222,0.244,2.930,1.587,73.333,20832.000,1.000
191420.891,308842.375,444075.438,711157.688,196297.953,211165.703,228619.469,194249.719,-0.073,0.992,0.222,0.214,2.716,1.465,73.333,20833.000,1.000
191392.719,308794.281,444115.250,711165.500,196575.203,211221.484,228800.328,194318.656,-0.072,0.992,0.221,0.214,2.594,1.434,73.333,20834.000,1.000
191601.219,309069.375,444328.219,711180.250,196957.234,211329.406,229027.422,194372.828,-0.072,0.991,0.220,0.275,2.533,1.251,73.333,20835.000,1.000
191745.438,309286.813,444419.500,711180.313,196947.578,211341.656,229002.391,194343.156,-0.073,0.989,0.224,0.336,2.563,1.160,73.333,20836.000,1.000
191593.000,309091.750,444211.156,711161.813,196486.328,211220.781,228713.609,194254.109,-0.071,0.991,0.224,0.275,2.319,1.099,73.333,20837.000,1.000
191443.594,308849.531,444076.781,711159.313,196320.125,211185.016,228650.125,194277.438,-0.071,0.993,0.227,0.305,2.289,0.946,73.333,20838.000,1.000
191411.047,308806.813,444114.688,711168.500,196594.156,211240.453,228829.750,194341.281,-0.072,0.994,0.225,0.366,2.228,0.916,73.333,20839.000,1.000
191614.719,309077.969,444323.281,711185.063,196975.922,211346.656,229050.500,194385.797,-0.073,0.993,0.224,0.336,2.228,0.763,73.333,20840.000,1.000
191756.703,309286.656,444409.375,711184.188,196965.641,211355.328,229016.969,194345.391,-0.071,0.994,0.223,0.305,2.106,0.793,73.333,20841.000,1.000
191592.094,309082.094,444195.531,711163.500,196500.719,211226.766,228720.859,194247.672,-0.070,0.991,0.225,0.275,2.075,0.763,73.333,20842.000,1.000
191426.516,308814.844,444042.719,711158.500,196309.391,211173.563,228637.797,194258.750,-0.070,0.989,0.228,0.214,2.228,0.763,73.333,20843.000,1.000
191399.250,308770.406,444081.719,711168.438,196580.734,211229.453,228818.844,194326.078,-0.070,0.990,0.231,0.214,2.228,0.732,73.333,20844.000,1.000
191606.047,309040.500,444288.406,711186.063,196963.938,211335.031,229039.047,194374.000,-0.068,0.990,0.230,0.336,2.258,0.824,73.333,20845.000,1.000
191753.203,309258.313,444381.750,711185.000,196963.047,211345.766,229012.594,194336.891,-0.069,0.990,0.232,0.641,2.350,0.854,73.333,20846.000,1.000
191592.375,309057.406,444166.656,711165.750,196493.750,211214.344,228712.094,194236.938,-0.068,0.993,0.235,0.580,2.380,0.854,73.333,20847.000,1.000
191423.922,308791.406,444005.719,711160.375,196292.047,211160.875,228622.859,194245.078,-0.068,0.996,0.232,0.610,2.472,0.977,73.333,20848.000,1.000
191397.109,308751.094,444048.281,711171.313,196567.953,211221.219,228806.766,194317.672,-0.068,0.995,0.234,0.610,2.502,0.977,73.333,20849.000,1.000
191596.484,309017.094,444257.125,711186.500,196950.172,211322.438,229026.984,194367.375,-0.065,0.994,0.239,0.519,2.533,1.160,73.333,20850.000,1.000
191749.906,309245.969,444358.969,711185.063,196951.594,211337.984,229007.578,194339.391,-0.065,0.994,0.239,0.580,2.777,1.129,73.333,20851.000,1.000
191587.094,309050.344,444139.094,711163.063,196479.703,211203.078,228705.203,194236.484,-0.063,0.994,0.240,0.671,2.899,1.160,73.333,20852.000,1.000
191418.469,308779.000,443976.219,711157.063,196279.000,211149.516,228615.703,194248.109,-0.061,0.994,0.240,0.610,3.052,1.221,73.333,20853.000,1.000
191388.703,308731.781,444017.250,711166.625,196554.359,211207.813,228797.297,194317.313,-0.060,0.993,0.244,0.671,3.143,1.160,73.333,20854.000,1.000
191595.234,309007.531,444229.125,711181.313,196942.391,211314.391,229019.922,194364.344,-0.060,0.991,0.244,0.763,3.387,1.282,73.333,20855.000,1.000
191739.625,309228.625,444323.813,711181.875,196941.500,211323.766,228992.203,194327.953,-0.060,0.992,0.242,0.854,3.601,1.343,73.333,20856.000,1.000
191581.109,309031.656,444112.281,711163.313,196477.750,211193.328,228694.391,194231.844,-0.059,0.992,0.245,0.977,3.937,1.373,73.333,20857.000,1.000
191415.875,308762.813,443956.281,711157.500,196282.750,211143.625,228609.625,194245.438,-0.060,0.990,0.247,1.099,4.089,1.404,73.333,20858.000,1.000
191390.125,308718.094,443994.281,711166.125,196557.047,211200.578,228791.844,194314.281,-0.060,0.988,0.245,1.251,4.333,1.465,73.333,20859.000,1.000
191594.609,308992.219,444205.531,711181.375,196946.422,211306.969,229018.750,194365.766,-0.061,0.986,0.247,1.495,4.669,1.373,73.333,20860.000,1.000
191737.828,309210.375,444300.656,711180.000,196947.484,211320.375,228997.297,194335.641,-0.062,0.985,0.244,1.862,4.883,1.404,73.333,20861.000,1.000
191576.719,309015.031,444086.906,711159.688,196474.531,211190.016,228697.344,194236.406,-0.064,0.982,0.246,2.167,5.096,1.404,73.333,20862.000,1.000
191409.344,308742.438,443926.781,711154.500,196272.906,211135.656,228605.516,194241.406,-0.066,0.981,0.246,2.533,5.157,1.465,73.333,20863.000,1.000
191384.313,308687.813,443967.188,711164.500,196549.188,211193.688,228786.750,194310.344,-0.069,0.981,0.245,2.777,5.157,1.404,73.333,20864.000,1.000
191600.063,308968.281,444185.344,711180.875,196945.703,211305.719,229016.516,194364.781,-0.069,0.982,0.244,2.991,5.188,1.404,73.333,20865.000,1.000
191750.531,309192.500,444286.000,711182.563,196950.625,211321.266,228995.328,194338.063,-0.070,0.981,0.247,3.326,5.127,1.343,73.333,20866.000,1.000
191588.078,308996.781,444071.875,711161.125,196477.031,211188.047,228691.078,194234.703,-0.070,0.982,0.248,3.693,5.188,1.343,73.333,20867.000,1.000
191422.047,308731.875,443910.844,711156.188,196271.031,211138.797,228598.984,194240.781,-0.067,0.982,0.245,4.028,5.310,1.373,73.333,20868.000,1.000
191398.266,308694.938,443954.563,711168.875,196555.891,211204.766,228792.563,194317.500,-0.067,0.986,0.242,4.456,5.280,1.343,73.333,20869.000,1.000
191597.016,308959.063,444160.313,711183.750,196947.672,211309.297,229017.688,194366.125,-0.066,0.991,0.240,4.700,5.310,1.495,73.333,20870.000,1.000
191740.688,309166.563,444251.031,711180.750,196945.516,211316.891,228989.156,194330.813,-0.066,0.994,0.241,4.974,5.402,1.678,73.333,20871.000,1.000
191583.156,308962.625,444036.375,711159.875,196473.094,211184.563,228686.344,194231.844,-0.063,0.997,0.243,5.035,5.493,1.740,73.333,20872.000,1.000
191414.891,308695.750,443873.219,711154.500,196262.359,211129.141,228592.281,194237.922,-0.061,0.996,0.240,5.219,5.585,1.923,73.333,20873.000,1.000
191395.500,308675.375,443925.250,711167.563,196553.922,211199.938,228791.578,194314.719,-0.059,0.993,0.240,5.432,5.737,2.106,73.333,20874.000,1.000
191603.453,308958.875,444142.500,711184.625,196956.516,211311.875,229025.547,194370.250,-0.058,0.992,0.241,5.615,5.859,2.228,73.333,20875.000,1.000
191737.469,309162.188,444224.750,711183.250,196941.313,211313.141,228987.734,194330.188,-0.059,0.992,0.240,5.859,5.981,2.319,73.333,20876.000,1.000
191572.156,308951.563,444002.844,711161.750,196457.891,211178.391,228679.016,194225.766,-0.060,0.993,0.237,6.104,6.134,2.319,73.333,20877.000,1.000
191407.656,308676.531,443841.750,711155.375,196249.578,211130.203,228585.578,194238.094,-0.060,0.993,0.235,6.317,6.165,2.350,73.333,20878.000,1.000
191382.703,308644.625,443887.531,711167.125,196538.188,211194.141,228774.938,194309.891,-0.061,0.990,0.233,6.561,6.256,2.228,73.333,20879.000,1.000
191583.422,308920.625,444094.844,711182.563,196933.813,211301.594,228999.984,194356.391,-0.062,0.989,0.233,6.836,6.287,2.106,73.333,20880.000,1.000
191729.344,309137.250,444188.188,711183.625,196930.500,211313.313,228974.766,194324.641,-0.061,0.991,0.231,6.927,6.409,2.045,73.333,20881.000,1.000
191571.094,308936.781,443970.125,711160.188,196454.313,211177.141,228668.453,194221.203,-0.060,0.991,0.230,7.050,6.409,1.831,73.333,20882.000,1.000
191408.375,308682.531,443815.719,711155.188,196253.594,211128.953,228578.875,194230.766,-0.058,0.993,0.227,7.324,6.500,1.648,73.333,20883.000,1.000
191379.938,308656.875,443867.031,711167.000,196546.766,211192.172,228773.516,194299.875,-0.058,0.995,0.226,7.538,6.592,1.526,73.333,20884.000,1.000
191576.813,308926.500,444074.563,711180.875,196939.359,211296.688,229001.766,194348.344,-0.058,0.998,0.226,7.690,6.592,1.495,73.333,20885.000,1.000
191707.172,309115.344,444150.906,711180.688,196912.891,211299.984,228961.094,194311.234,-0.058,1.000,0.225,7.812,6.531,1.312,73.333,20886.000,1.000
191556.063,308910.406,443937.938,711160.688,196435.281,211173.656,228660.688,194218.609,-0.056,1.003,0.224,7.751,6.561,1.221,73.333,20887.000,1.000
191408.281,308669.656,443797.656,711156.375,196246.531,211133.875,228588.000,194239.891,-0.058,1.002,0.223,7.874,6.714,1.190,73.333,20888.000,1.000
191388.516,308667.406,443859.344,711167.750,196554.641,211206.297,228795.781,194318.563,-0.057,1.004,0.222,7.874,6.805,1.068,73.333,20889.000,1.000
191572.438,308926.344,444054.531,711184.625,196939.359,211306.422,229010.797,194359.516,-0.055,1.004,0.220,7.935,6.805,1.007,73.333,20890.000,1.000
191703.141,309105.344,444121.219,711184.000,196906.719,211304.469,228956.891,194314.094,-0.055,1.003,0.218,7.812,6.866,0.946,73.333,20891.000,1.000
191550.438,308899.438,443898.875,711159.875,196419.891,211165.250,228641.016,194204.922,-0.055,1.004,0.218,7.721,6.989,0.885,73.333,20892.000,1.000
191400.234,308652.219,443756.344,711154.688,196228.922,211122.609,228563.406,194221.297,-0.053,1.002,0.217,7.812,7.080,0.977,73.333,20893.000,1.000
191382.625,308647.469,443822.688,711166.563,196539.875,211195.031,228778.156,194303.094,-0.056,1.000,0.218,7.874,7.050,0.854,73.333,20894.000,1.000
191572.969,308915.688,444022.438,711181.938,196926.750,211296.422,229000.781,194350.484,-0.057,0.999,0.217,7.904,7.202,0.702,73.333,20895.000,1.000
191695.625,309087.438,444082.500,711179.438,196880.875,211288.094,228940.875,194300.234,-0.058,0.998,0.215,7.874,7.233,0.702,73.333,20896.000,1.000
191541.234,308877.063,443861.219,711158.625,196391.281,211151.031,228628.500,194198.938,-0.060,0.996,0.215,7.904,7.233,0.580,73.333,20897.000,1.000
191397.453,308641.750,443722.906,711154.688,196208.359,211110.094,228554.203,194215.922,-0.059,0.996,0.212,8.026,7.172,0.519,73.333,20898.000,1.000
191379.766,308648.906,443792.469,711168.438,196531.125,211183.844,228768.594,194288.969,-0.059,0.997,0.212,8.118,7.141,0.488,73.333,20899.000,1.000
191565.016,308910.500,443994.000,711184.188,196923.438,211288.016,228992.563,194340.469,-0.058,0.996,0.211,8.240,7.172,0.397,73.333,20900.000,1.000
191682.672,309065.000,444048.813,711181.500,196870.859,211281.219,228932.563,194300.422,-0.057,1.000,0.209,8.301,7.172,0.305,73.333,20901.000,1.000
191535.953,308851.781,443830.031,711159.438,196380.297,211149.703,228623.672,194205.109,-0.055,1.000,0.206,8.423,7.172,0.244,73.333,20902.000,1.000
191394.516,308616.094,443694.031,711155.000,196198.531,211109.547,228549.734,194221.922,-0.058,1.001,0.203,8.606,7.202,0.183,73.333,20903.000,1.000
191379.672,308632.375,443772.813,711169.125,196536.219,211187.875,228773.250,194298.719,-0.059,1.001,0.198,8.759,7.233,0.122,73.333,20904.000,1.000
191556.609,308890.469,443968.531,711183.250,196924.953,211291.766,228992.109,194342.609,-0.060,1.000,0.197,8.881,7.233,-0.031,73.333,20905.000,1.000
191674.078,309048.719,444019.031,711178.875,196863.172,211279.875,228926.406,194297.281,-0.059,1.000,0.196,8.972,7.233,-0.092,73.333,20906.000,1.000
191534.344,308843.469,443804.719,711159.500,196372.953,211154.078,228620.453,194204.391,-0.058,1.001,0.197,9.186,7.263,-0.214,73.333,20907.000,1.000
191401.484,308618.344,443681.250,711158.125,196202.641,211122.609,228558.578,194225.938,-0.061,1.000,0.191,9.338,7.324,-0.336,73.333,20908.000,1.000
191380.922,308624.688,443751.531,711168.625,196532.547,211189.391,228773.156,194293.078,-0.062,0.998,0.187,9.460,7.416,-0.397,73.333,20909.000,1.000
191561.875,308892.719,443945.625,711182.313,196921.031,211289.625,228991.844,194338.500,-0.063,1.000,0.186,9.766,7.294,-0.610,73.333,20910.000,1.000
191673.547,309042.281,443994.094,711179.250,196858.797,211280.859,228928.281,194296.484,-0.064,1.000,0.185,9.857,7.324,-0.824,73.333,20911.000,1.000
191529.063,308824.781,443780.500,711159.938,196370.281,211153.000,228625.547,194203.672,-0.063,1.003,0.182,9.888,7.172,-1.038,73.333,20912.000,1.000
191394.594,308594.188,443647.188,711154.938,196188.328,211114.563,228554.469,194219.063,-0.063,1.003,0.178,9.979,7.111,-1.160,73.333,20913.000,1.000
191390.484,308631.469,443736.156,711167.563,196536.125,211198.609,228784.781,194301.125,-0.063,1.005,0.180,10.010,7.111,-1.373,73.333,20914.000,1.000
191567.063,308892.625,443933.656,711183.250,196932.109,211298.922,229005.609,194346.109,-0.065,1.007,0.176,9.949,6.989,-1.434,73.333,20915.000,1.000
191674.438,309039.719,443977.719,711179.375,196868.906,211280.406,228934.266,194298.188,-0.066,1.009,0.177,9.888,6.989,-1.465,73.333,20916.000,1.000
191530.234,308820.656,443755.813,711158.125,196368.219,211146.484,228618.656,194202.781,-0.068,1.011,0.173,9.857,7.019,-1.617,73.333,20917.000,1.000
191398.438,308590.781,443627.250,711155.313,196188.328,211110.813,228549.188,194221.828,-0.066,1.011,0.171,9.705,6.989,-1.678,73.333,20918.000,1.000
191383.328,308611.531,443705.219,711168.250,196526.922,211190.109,228773.953,194294.875,-0.067,1.011,0.170,9.521,6.989,-1.740,73.333,20919.000,1.000
191559.563,308874.656,443902.344,711184.063,196924.516,211289.797,228999.984,194340.563,-0.069,1.013,0.167,9.430,6.866,-1.678,73.333,20920.000,1.000
191671.047,309016.281,443946.719,711180.750,196864.156,211275.844,228933.281,194300.063,-0.068,1.014,0.168,9.247,6.897,-1.801,73.333,20921.000,1.000
191522.188,308774.688,443716.750,711159.125,196355.078,211141.203,228613.203,194204.750,-0.066,1.016,0.167,9.155,6.775,-1.770,73.333,20922.000,1.000
191390.219,308534.906,443581.125,711153.875,196164.641,211100.172,228537.750,194218.969,-0.065,1.015,0.167,8.942,6.744,-1.770,73.333,20923.000,1.000
191386.828,308571.375,443666.063,711168.063,196514.672,211179.656,228766.188,194291.656,-0.066,1.017,0.165,8.881,6.714,-1.801,73.333,20924.000,1.000
191568.578,308853.469,443870.969,711185.688,196924.328,211286.047,228997.297,194340.828,-0.064,1.018,0.163,8.575,6.714,-1.801,73.333,20925.000,1.000
191674.172,309006.719,443918.531,711183.625,196869.078,211276.391,228934.094,194298.719,-0.065,1.020,0.158,8.270,6.775,-1.831,73.333,20926.000,1.000
191519.594,308774.250,443685.094,711159.938,196355.703,211135.031,228609.094,194197.859,-0.065,1.018,0.156,8.057,6.866,-1.862,73.333,20927.000,1.000
191389.141,308545.188,443546.781,711155.188,196166.344,211100.875,228535.688,194216.375,-0.065,1.017,0.154,7.965,6.958,-1.953,73.333,20928.000,1.000
191387.797,308585.156,443628.594,711170.063,196521.906,211187.609,228771.094,194297.828,-0.066,1.013,0.154,7.843,7.050,-2.014,73.333,20929.000,1.000
191555.438,308834.875,443813.500,711183.813,196916.375,211281.938,228989.078,194335.547,-0.067,1.013,0.151,7.843,7.080,-1.984,73.333,20930.000,1.000
191658.703,308966.938,443854.063,711180.000,196845.031,211270.844,228912.547,194291.656,-0.068,1.013,0.147,7.965,7.172,-2.136,73.333,20931.000,1.000
191513.328,308752.969,443632.531,711158.625,196336.219,211136.734,228593.813,194194.016,-0.068,1.017,0.145,8.148,7.294,-2.258,73.333,20932.000,1.000
191394.234,308555.375,443513.438,711156.000,196160.969,211105.172,228535.516,194218.156,-0.068,1.015,0.144,8.179,7.385,-2.350,73.333,20933.000,1.000
191388.969,308601.531,443605.344,711168.000,196520.563,211187.703,228774.578,194296.484,-0.069,1.013,0.142,8.270,7.294,-2.441,73.333,20934.000,1.000
191557.047,308845.250,443797.313,711183.438,196913.781,211288.547,228994.344,194340.016,-0.070,1.009,0.136,8.698,7.477,-2.594,73.333,20935.000,1.000
191655.750,308954.219,443829.500,711180.250,196833.766,211271.563,228913.875,194290.844,-0.073,1.005,0.128,9.033,7.446,-2.747,73.333,20936.000,1.000
191515.031,308720.156,443605.344,711160.313,196323.875,211137.625,228594.078,194192.766,-0.077,1.001,0.128,9.247,7.446,-2.869,73.333,20937.000,1.000
191394.875,308512.563,443487.500,711155.938,196150.328,211107.234,228531.938,194216.641,-0.078,0.994,0.130,9.552,7.416,-3.082,73.333,20938.000,1.000
191395.219,308578.625,443595.156,711171.125,196526.469,211199.938,228782.359,194301.219,-0.080,0.988,0.130,9.949,7.355,-3.204,73.333,20939.000,1.000
191556.781,308837.094,443784.688,711187.063,196920.672,211299.984,229000.156,194343.328,-0.083,0.986,0.127,10.284,7.294,-3.448,73.333,20940.000,1.000
191644.578,308939.219,443801.594,711179.688,196822.234,211272.094,228904.047,194289.156,-0.088,0.981,0.128,10.681,7.019,-3.632,73.333,20941.000,1.000
191515.656,308710.250,443586.125,711158.688,196318.156,211144.156,228590.047,194198.484,-0.092,0.978,0.127,11.108,6.866,-3.937,73.333,20942.000,1.000
191406.406,308509.156,443475.625,711156.625,196153.375,211117.953,228533.453,194221.109,-0.096,0.979,0.127,11.536,6.592,-4.181,73.333,20943.000,1.000
191404.797,308572.281,443576.906,711170.063,196530.500,211202.453,228780.672,194298.891,-0.099,0.978,0.126,11.749,6.287,-4.364,73.333,20944.000,1.000
191561.703,308819.313,443763.875,711184.438,196921.375,211299.000,228997.750,194342.969,-0.102,0.977,0.125,11.902,5.951,-4.669,73.333,20945.000,1.000
191648.344,308927.219,443782.719,711181.063,196824.469,211272.984,228902.344,194288.797,-0.102,0.974,0.121,12.054,5.432,-4.730,73.333,20946.000,1.000
191508.594,308696.125,443560.375,711160.688,196315.203,211141.109,228582.266,194188.750,-0.103,0.972,0.121,12.329,4.883,-4.944,73.333,20947.000,1.000
191392.453,308491.469,443450.219,711159.688,196147.391,211110.359,228526.031,194212.969,-0.105,0.971,0.122,12.451,4.395,-5.035,73.333,20948.000,1.000
191395.578,308557.625,443560.375,711175.875,196530.141,211202.984,228779.234,194299.609,-0.105,0.973,0.123,12.543,3.967,-5.219,73.333,20949.000,1.000
191550.344,308806.000,443738.563,711185.188,196914.234,211289.172,228986.750,194332.875,-0.103,0.972,0.123,12.482,3.632,-5.432,73.333,20950.000,1.000
191628.125,308894.063,443740.000,711175.750,196802.922,211251.172,228880.531,194269.297,-0.102,0.972,0.117,12.268,3.143,-5.524,73.333,20951.000,1.000
191493.484,308651.781,443513.531,711156.000,196286.859,211121.359,228559.391,194176.500,-0.100,0.969,0.116,12.115,2.808,-5.646,73.333,20952.000,1.000
191387.531,308432.188,443407.594,711156.813,196114.750,211107.859,228508.516,194207.875,-0.100,0.965,0.117,12.024,2.411,-5.737,73.333,20953.000,1.000
191390.313,308502.625,443516.125,711170.250,196486.781,211198.875,228763.047,194293.000,-0.098,0.966,0.115,11.841,2.197,-5.798,73.333,20954.000,1.000
191550.609,308772.750,443707.906,711185.625,196887.938,211294.891,228988.984,194337.609,-0.097,0.967,0.113,11.841,2.014,-5.768,73.333,20955.000,1.000
191638.859,308880.750,443731.781,711181.375,196806.766,211273.266,228905.391,194289.328,-0.099,0.967,0.112,11.658,1.862,-5.585,73.333,20956.000,1.000
191495.266,308617.344,443502.531,711157.000,196289.000,211137.531,228581.641,194191.781,-0.098,0.969,0.113,11.505,1.526,-5.432,73.333,20957.000,1.000
191380.031,308366.563,443381.375,711156.625,196096.609,211108.219,228510.750,194213.688,-0.096,0.966,0.108,11.200,1.343,-5.188,73.333,20958.000,1.000
191384.500,308408.313,443489.375,711170.750,196466.391,211199.500,228760.375,194298.531,-0.097,0.965,0.107,11.078,1.312,-4.913,73.333,20959.000,1.000
191543.188,308667.156,443681.438,711181.250,196875.781,211294.359,228988.000,194338.688,-0.094,0.962,0.107,11.017,1.251,-4.578,73.333,20960.000,1.000
191630.281,308788.031,443704.156,711177.438,196798.891,211267.719,228901.000,194285.031,-0.092,0.958,0.107,10.742,1.068,-4.303,73.333,20961.000,1.000
191489.641,308559.156,443479.188,711159.500,196287.578,211134.859,228575.656,194188.391,-0.091,0.958,0.107,10.651,1.099,-4.089,73.333,20962.000,1.000
191372.609,308341.781,443352.781,711156.125,196087.578,211100.250,228496.797,194204.844,-0.093,0.959,0.107,10.590,1.251,-3.876,73.333,20963.000,1.000
191383.156,308416.625,443465.969,711169.438,196457.359,211193.859,228747.406,194289.781,-0.092,0.958,0.108,10.437,1.251,-3.662,73.333,20964.000,1.000
191546.859,308698.156,443670.781,711185.438,196881.688,211297.391,228985.406,194336.891,-0.093,0.962,0.108,10.284,1.221,-3.418,73.333,20965.000,1.000
191630.547,308813.781,443691.281,711178.438,196805.156,211270.125,228900.656,194287.453,-0.093,0.966,0.110,10.284,1.343,-3.265,73.333,20966.000,1.000
191487.672,308572.906,443461.219,711157.000,196288.016,211134.047,228574.672,194193.125,-0.094,0.971,0.108,10.040,1.312,-3.143,73.333,20967.000,1.000
191370.641,308334.625,443337.406,711155.938,196086.313,211101.953,228500.203,194216.188,-0.094,0.972,0.101,9.949,1.404,-2.991,73.333,20968.000,1.000
191374.297,308384.625,443441.719,711170.125,196455.125,211190.734,228749.813,194296.750,-0.094,0.977,0.105,9.766,1.587,-2.869,73.333,20969.000,1.000
191538.453,308657.031,443638.063,711183.813,196878.109,211291.672,228984.156,194341.359,-0.095,0.981,0.105,9.583,1.740,-2.808,73.333,20970.000,1.000
191630.016,308789.281,443668.656,711180.313,196816.234,211270.844,228907.172,194292.547,-0.096,0.984,0.105,9.338,1.678,-2.747,73.333,20971.000,1.000
191486.594,308556.906,443438.063,711159.875,196297.672,211130.031,228578.156,194192.234,-0.097,0.987,0.103,9.064,1.740,-2.716,73.333,20972.000,1.000
191365.719,308328.906,443302.969,711155.750,196083.016,211088.453,228491.703,194207.250,-0.094,0.990,0.100,8.820,1.862,-2.533,73.333,20973.000,1.000
191368.047,308382.844,443404.813,711170.938,196448.688,211177.328,228736.500,194286.016,-0.094,0.996,0.099,8.575,1.953,-2.472,73.333,20974.000,1.000
191540.250,308652.938,443610.000,711187.750,196882.578,211288.547,228979.594,194335.547,-0.094,1.004,0.096,8.179,2.167,-2.228,73.333,20975.000,1.000
191625.094,308753.063,443634.594,711180.750,196816.156,211265.656,228899.672,194282.891,-0.093,1.009,0.094,7.843,2.228,-2.136,73.333,20976.000,1.000
191483.469,308504.688,443402.469,711159.875,196295.000,211125.375,228569.313,194182.484,-0.093,1.011,0.096,7.446,2.380,-1.984,73.333,20977.000,1.000
191369.031,308281.000,443275.156,711156.750,196086.594,211094.266,228491.438,194200.813,-0.092,1.015,0.091,7.111,2.502,-1.862,73.333,20978.000,1.000
191377.969,308357.000,443383.531,711170.500,196459.422,211186.891,228743.734,194281.469,-0.092,1.024,0.089,6.775,2.625,-1.831,73.333,20979.000,1.000
191542.922,308630.125,443580.500,711188.563,196893.219,211294.000,228984.609,194330.188,-0.090,1.030,0.086,6.470,2.808,-1.678,73.333,20980.000,1.000
191617.313,308713.906,443582.813,711182.125,196813.109,211260.031,228890.375,194271.172,-0.088,1.034,0.088,5.829,2.991,-1.526,73.333,20981.000,1.000
191472.563,308432.719,443341.406,711159.500,196285.344,211121.094,228557.859,194172.563,-0.086,1.035,0.087,5.249,3.235,-1.373,73.333,20982.000,1.000
191354.281,308135.813,443207.656,711157.063,196070.047,211090.422,228474.531,194193.578,-0.085,1.035,0.088,4.852,3.418,-1.251,73.333,20983.000,1.000
191374.938,308176.031,443329.781,711172.563,196454.313,211196.641,228737.844,194284.859,-0.084,1.028,0.088,4.456,3.571,-1.068,73.333,20984.000,1.000
191543.375,308445.500,443540.250,711189.438,196901.266,211316.078,228989.609,194340.922,-0.082,1.022,0.087,3.937,3.723,-0.977,73.333,20985.000,1.000
191613.203,308545.469,443547.500,711181.500,196819.547,211280.953,228893.594,194279.938,-0.083,1.012,0.089,3.662,3.906,-0.885,73.333,20986.000,1.000
191472.391,308316.313,443313.250,711161.000,196291.953,211139.781,228562.781,194184.281,-0.085,1.008,0.085,3.479,4.181,-0.916,73.333,20987.000,1.000
191359.469,308105.750,443186.656,711159.938,196076.484,211100.078,228482.406,194202.344,-0.088,1.005,0.091,3.479,4.242,-0.763,73.333,20988.000,1.000
191376.625,308185.344,443310.125,711176.938,196465.672,211199.500,228750.266,194292.641,-0.091,1.002,0.093,3.418,4.333,-0.793,73.333,20989.000,1.000
191532.734,308437.625,443513.438,711191.875,196900.453,211304.375,228994.344,194344.578,-0.092,0.999,0.093,3.326,4.425,-0.793,73.333,20990.000,1.000
191601.125,308505.750,443516.844,711182.375,196811.234,211266.828,228893.859,194282.000,-0.094,0.999,0.095,3.357,4.517,-0.885,73.333,20991.000,1.000
191463.000,308250.781,443285.719,711162.438,196286.688,211130.031,228561.703,194181.766,-0.097,1.003,0.098,3.296,4.425,-0.946,73.333,20992.000,1.000
191356.422,308032.813,443165.031,711160.688,196072.813,211099.266,228483.656,194205.641,-0.100,1.008,0.100,3.082,4.333,-1.190,73.333,20993.000,1.000
191378.953,308134.281,443293.406,711177.813,196463.438,211203.344,228749.375,194298.266,-0.102,1.015,0.102,2.960,4.181,-1.251,73.333,20994.000,1.000
191542.563,308415.469,443496.000,711193.125,196902.875,211302.500,228987.906,194343.875,-0.102,1.016,0.104,2.594,3.998,-1.404,73.333,20995.000,1.000
191621.875,308519.719,443513.531,711189.188,196835.188,211276.203,228903.063,194294.156,-0.104,1.019,0.106,2.228,3.662,-1.404,73.333,20996.000,1.000
191473.547,308262.844,443269.188,711163.813,196301.609,211126.094,228560.359,194185.172,-0.102,1.016,0.105,1.862,3.418,-1.465,73.333,20997.000,1.000
191352.750,308023.250,443134.250,711160.063,196077.375,211085.859,228471.313,194201.984,-0.101,1.014,0.106,1.587,3.296,-1.404,73.333,20998.000,1.000
191373.234,308110.219,443260.250,711178.750,196467.188,211185.906,228739.266,194295.313,-0.100,1.007,0.110,1.404,3.052,-1.190,73.333,20999.000,1.000
191528.359,308374.438,443460.688,711192.313,196904.938,211287.203,228978.438,194337.344,-0.101,1.006,0.110,1.373,2.899,-1.099,73.333,21000.000,1.000
191601.938,308458.563,443475.094,711185.063,196832.875,211253.859,228886.609,194278.781,-0.102,1.002,0.114,1.190,2.563,-1.129,73.333,21001.000,1.000
191464.781,308200.000,443240.375,711163.500,196303.313,211114.297,228551.156,194179.984,-0.103,1.000,0.110,1.160,2.472,-0.946,73.333,21002.000,1.000
191363.391,307975.125,443114.938,711162.063,196087.031,211083.266,228475.438,194207.516,-0.105,0.996,0.113,1.129,2.289,-1.038,73.333,21003.000,1.000
191371.266,308057.125,443229.750,711176.750,196464.156,211180.906,228735.344,194289.516,-0.109,0.994,0.113,1.343,2.106,-0.854,73.333,21004.000,1.000
191522.625,308344.469,443428.063,711189.063,196895.547,211277.906,228974.406,194328.047,-0.107,0.988,0.117,1.404,1.801,-0.916,73.333,21005.000,1.000
191599.438,308461.875,443447.531,711184.438,196824.906,211259.672,228892.875,194282.438,-0.106,0.988,0.112,1.648,1.617,-0.702,73.333,21006.000,1.000
191463.891,308228.594,443218.219,711165.563,196301.172,211124.844,228564.125,194187.406,-0.104,0.986,0.112,1.831,1.404,-0.763,73.333,21007.000,1.000
191338.453,307982.813,443074.719,711161.000,196059.500,211078.797,228462.734,194191.703,-0.105,0.985,0.115,2.136,1.221,-0.732,73.333,21008.000,1.000
191359.906,308065.781,443203.188,711176.500,196447.172,211181.703,228728.906,194282.094,-0.103,0.983,0.115,2.350,0.977,-0.824,73.333,21009.000,1.000
191523.078,308337.594,443412.063,711191.438,196897.234,211288.719,228981.203,194332.875,-0.105,0.984,0.110,2.625,0.885,-0.610,73.333,21010.000,1.000
191602.469,308441.219,443429.469,711184.000,196833.578,211260.922,228897.969,194281.375,-0.102,0.984,0.112,2.899,0.671,-0.610,73.333,21011.000,1.000
191456.734,308183.469,443186.844,711162.813,196295.000,211114.031,228552.953,194176.234,-0.102,0.986,0.111,3.296,0.732,-0.427,73.333,21012.000,1.000
191344.172,307944.469,443057.281,711160.500,196063.250,211078.625,228464.438,194195.000,-0.102,0.988,0.111,3.479,0.519,-0.519,73.333,21013.000,1.000
191365.000,308042.281,443186.656,711177.313,196447.344,211183.219,228732.031,194285.313,-0.101,0.988,0.109,3.693,0.427,-0.427,73.333,21014.000,1.000
191523.609,308325.625,443391.656,711191.250,196895.000,211287.391,228980.047,194333.141,-0.102,0.991,0.108,4.059,0.366,-0.366,73.333,21015.000,1.000
191609.438,308442.656,443416.063,711188.938,196841.359,211263.516,228903.875,194287.906,-0.100,0.997,0.108,4.059,0.244,-0.427,73.333,21016.000,1.000
191461.297,308190.344,443170.031,711165.938,196302.234,211113.844,228556.797,194181.500,-0.099,1.000,0.106,4.181,0.336,-0.427,73.333,21017.000,1.000
191341.484,307951.000,443024.656,711161.125,196058.609,211068.344,228457.094,194191.156,-0.097,1.000,0.106,4.303,0.244,-0.549,73.333,21018.000,1.000
191362.063,308035.563,443151.531,711179.688,196445.563,211179.375,228726.219,194288.875,-0.098,1.001,0.106,4.211,0.214,-0.519,73.333,21019.000,1.000
191528.531,308322.031,443367.438,711195.625,196905.016,211295.781,228984.250,194346.016,-0.097,1.009,0.104,4.211,0.244,-0.610,73.333,21020.000,1.000
191605.953,308427.969,443390.781,711189.563,196851.469,211269.500,228905.203,194290.672,-0.098,1.011,0.104,4.150,0.214,-0.641,73.333,21021.000,1.000
191462.547,308170.594,443151.438,711166.625,196316.625,211119.031,228561.625,194181.063,-0.098,1.013,0.102,4.059,0.244,-0.763,73.333,21022.000,1.000
191353.031,307932.219,443010.781,711163.813,196072.906,211079.422,228462.906,194196.703,-0.096,1.012,0.104,3.754,0.244,-0.854,73.333,21023.000,1.000
191367.953,308018.125,443122.563,711177.938,196440.469,211172.859,228716.734,194280.828,-0.094,1.013,0.102,3.510,0.275,-0.854,73.333,21024.000,1.000
191535.766,308316.656,443336.156,711195.188,196900.453,211287.563,228977.813,194338.688,-0.090,1.010,0.100,3.326,0.458,-0.854,73.333,21025.000,1.000
191628.484,308434.063,443368.781,711191.250,196855.938,211278.438,228911.109,194301.125,-0.087,1.005,0.104,3.143,0.671,-0.916,73.333,21026.000,1.000
191491.516,308178.813,443129.531,711168.000,196321.281,211136.906,228566.719,194193.844,-0.084,1.000,0.101,2.991,0.763,-0.854,73.333,21027.000,1.000
191363.938,307919.344,442975.750,711159.750,196061.828,211081.563,228451.203,194194.828,-0.082,0.993,0.103,2.960,1.099,-0.793,73.333,21028.000,1.000
191384.406,308002.688,443102.250,711177.000,196443.594,211182.516,228714.953,194287.000,-0.081,0.991,0.103,2.838,1.373,-0.671,73.333,21029.000,1.000
191544.172,308284.125,443314.063,711192.750,196897.781,211288.453,228970.031,194341.547,-0.082,0.986,0.100,2.930,1.709,-0.610,73.333,21030.000,1.000
191621.688,308391.875,443335.063,711188.813,196842.797,211262.984,228891.984,194288.438,-0.082,0.986,0.101,2.899,2.075,-0.488,73.333,21031.000,1.000
191481.688,308143.563,443098.594,711165.688,196312.516,211118.313,228551.781,194182.313,-0.082,0.986,0.101,3.174,2.319,-0.427,73.333,21032.000,1.000
191364.375,307901.188,442956.531,711159.250,196061.109,211076.031,228445.297,194194.734,-0.083,0.987,0.099,3.113,2.655,-0.336,73.333,21033.000,1.000
191385.219,308003.844,443086.781,711176.750,196448.859,211179.469,228712.094,194285.656,-0.083,0.983,0.095,3.174,2.960,-0.244,73.333,21034.000,1.000
191547.844,308299.250,443301.375,711194.250,196909.766,211292.563,228971.734,194342.078,-0.084,0.984,0.094,3.143,3.235,-0.153,73.333,21035.000,1.000
191633.047,308409.375,443321.938,711191.063,196856.031,211274.063,228899.219,194300.063,-0.086,0.984,0.095,3.296,3.479,-0.214,73.333,21036.000,1.000
191493.391,308146.250,443081.250,711167.750,196318.063,211129.219,228560.813,194198.938,-0.082,0.988,0.095,3.326,3.784,-0.183,73.333,21037.000,1.000
191378.234,307889.563,442942.125,711165.563,196068.703,211087.031,228460.594,194211.094,-0.084,0.992,0.092,3.540,3.967,-0.122,73.333,21038.000,1.000
191390.938,307968.594,443063.906,711178.813,196451.906,211178.938,228717.906,194287.359,-0.085,0.995,0.093,3.510,4.242,0.031,73.333,21039.000,1.000
191553.391,308266.688,443280.094,711196.250,196915.750,211293.375,228977.359,194341.719,-0.088,0.997,0.093,3.479,4.486,0.092,73.333,21040.000,1.000
191615.531,308377.469,443290.094,711187.750,196848.969,211260.563,228884.375,194281.641,-0.090,0.996,0.095,3.296,4.669,0.000,73.333,21041.000,1.000
191468.266,308136.344,443049.063,711164.688,196313.234,211110.984,228537.844,194168.625,-0.095,0.995,0.098,3.235,4.822,0.000,73.333,21042.000,1.000
191351.594,307907.625,442903.500,711160.188,196061.906,211064.672,228434.031,194180.250,-0.099,0.994,0.097,3.235,4.822,-0.153,73.333,21043.000,1.000
191370.016,308007.594,443030.625,711176.563,196447.344,211167.219,228702.531,194270.016,-0.103,0.994,0.101,3.174,4.700,-0.275,73.333,21044.000,1.000
191523.969,308290.844,443239.219,711192.563,196901.891,211274.516,228958.766,194322.234,-0.107,0.992,0.101,3.204,4.517,-0.244,73.333,21045.000,1.000
191598.172,308387.125,443253.719,711187.750,196837.969,211248.938,228878.828,194276.547,-0.110,0.990,0.099,3.174,4.456,-0.458,73.333,21046.000,1.000
191465.859,308139.031,443021.531,711166.000,196308.578,211110.266,228542.578,194179.453,-0.113,0.987,0.096,3.204,4.303,-0.641,73.333,21047.000,1.000
191344.797,307884.469,442874.000,711160.750,196047.250,211064.672,228431.703,194186.875,-0.118,0.985,0.098,3.113,3.998,-0.702,73.333,21048.000,1.000
191367.328,307968.250,443006.063,711177.813,196436.172,211173.484,228706.547,194279.938,-0.122,0.982,0.103,3.265,3.754,-0.885,73.333,21049.000,1.000
191533.984,308250.406,443223.750,711195.688,196899.391,211289.000,228972.891,194337.781,-0.123,0.981,0.103,3.357,3.296,-0.946,73.333,21050.000,1.000
191599.969,308325.250,443232.531,711190.500,196828.047,211257.516,228882.953,194285.219,-0.127,0.985,0.101,3.448,2.930,-1.129,73.333,21051.000,1.000
191457.719,308057.844,442985.500,711165.375,196280.063,211105.438,228530.766,194177.125,-0.127,0.988,0.097,3.601,2.502,-1.068,73.333,21052.000,1.000
191341.313,307810.000,442838.500,711158.875,196016.500,211059.672,228421.875,194185.609,-0.128,0.992,0.099,3.662,1.953,-1.038,73.333,21053.000,1.000
191376.547,307926.688,442984.594,711179.000,196419.000,211179.656,228705.297,194290.047,-0.129,0.993,0.100,3.784,1.373,-0.946,73.333,21054.000,1.000
191528.359,308208.031,443197.219,711195.813,196882.047,211290.063,228963.594,194340.828,-0.132,0.993,0.102,3.571,0.824,-0.732,73.333,21055.000,1.000
191586.469,308283.688,443200.438,711188.125,196809.000,211254.219,228871.406,194281.109,-0.133,0.991,0.101,3.601,0.214,-0.580,73.333,21056.000,1.000
191449.672,308017.250,442964.844,711167.125,196270.766,211113.047,228533.547,194183.203,-0.135,0.988,0.103,3.540,-0.244,-0.427,73.333,21057.000,1.000
191347.578,307777.531,442832.688,711164.688,196019.094,211073.875,228436.625,194200.641,-0.135,0.983,0.104,3.540,-0.702,-0.275,73.333,21058.000,1.000
191369.922,307878.406,442959.906,711177.938,196404.250,211169.281,228702.344,194283.703,-0.134,0.977,0.104,3.418,-1.343,-0.031,73.333,21059.000,1.000
191519.953,308161.281,443164.750,711192.125,196861.203,211274.781,228957.422,194329.828,-0.133,0.969,0.106,3.479,-1.862,0.183,73.333,21060.000,1.000
191587.188,308253.000,443175.563,711184.813,196794.953,211245.813,228873.922,194279.047,-0.134,0.966,0.111,3.540,-2.289,0.336,73.333,21061.000,1.000
191450.844,307985.875,442934.781,711162.875,196251.547,211101.688,228530.328,194179.094,-0.134,0.967,0.108,3.815,-2.716,0.336,73.333,21062.000,1.000
191341.938,307738.906,442797.906,711159.250,195997.188,211064.406,228430.188,194194.922,-0.132,0.971,0.108,3.998,-3.113,0.366,73.333,21063.000,1.000
191367.063,307854.438,442937.750,711175.250,196393.516,211173.125,228708.156,194291.031,-0.130,0.975,0.106,4.120,-3.510,0.427,73.333,21064.000,1.000
191508.859,308137.219,443141.406,711189.438,196853.250,211277.813,228964.313,194339.313,-0.128,0.979,0.107,4.211,-3.937,0.580,73.333,21065.000,1.000
191570.469,308234.688,443147.594,711182.375,196786.734,211248.672,228876.156,194280.391,-0.124,0.983,0.105,4.150,-4.272,0.641,73.333,21066.000,1.000
191441.359,307991.125,442916.469,711164.438,196254.859,211110.625,228537.297,194180.156,-0.124,0.982,0.107,4.028,-4.456,0.732,73.333,21067.000,1.000
191330.313,307740.719,442775.469,711161.000,195992.000,211066.453,228429.109,194197.234,-0.120,0.981,0.107,3.937,-4.700,0.824,73.333,21068.000,1.000
191350.797,307847.094,442905.906,711172.938,196380.469,211166.063,228697.875,194285.313,-0.118,0.979,0.104,3.815,-4.669,0.824,73.333,21069.000,1.000
191501.531,308135.531,443113.531,711190.188,196851.203,211272.094,228957.688,194329.656,-0.115,0.978,0.108,3.632,-4.761,0.916,73.333,21070.000,1.000
191568.578,308229.594,443122.094,711187.063,196794.156,211240.625,228872.750,194274.047,-0.113,0.976,0.108,3.754,-4.852,0.977,73.333,21071.000,1.000
191448.156,307989.719,442901.438,711166.563,196273.359,211106.781,228544.547,194186.516,-0.114,0.973,0.109,3.998,-4.852,1.099,73.333,21072.000,1.000
191333.094,307738.750,442754.563,711159.125,196003.531,211056.094,228428.219,194195.188,-0.114,0.973,0.110,3.906,-4.791,1.099,73.333,21073.000,1.000
191350.438,307836.469,442881.344,711171.813,196385.750,211150.766,228688.578,194278.328,-0.112,0.974,0.111,3.937,-4.700,1.007,73.333,21074.000,1.000
191505.109,308131.594,443094.313,711188.125,196857.906,211261.906,228954.656,194332.250,-0.111,0.977,0.110,3.937,-4.364,1.068,73.333,21075.000,1.000
191566.625,308229.219,443103.688,711182.313,196800.328,211231.500,228871.500,194274.578,-0.110,0.983,0.108,3.906,-4.242,1.129,73.333,21076.000,1.000
191432.234,307976.750,442866.219,711159.563,196263.172,211087.297,228528.813,194168.984,-0.108,0.988,0.108,3.937,-4.150,1.129,73.333,21077.000,1.000
191315.203,307714.594,442714.750,711156.188,195989.313,211035.703,228406.141,194169.969,-0.108,0.992,0.107,3.815,-4.059,1.129,73.333,21078.000,1.000
191341.938,307807.313,442850.031,711174.500,196381.000,211139.422,228676.594,194261.344,-0.106,0.994,0.111,3.784,-3.815,1.190,73.333,21079.000,1.000
191495.266,308093.500,443059.531,711189.063,196851.641,211248.844,228937.656,194314.719,-0.106,0.992,0.112,3.601,-3.723,1.251,73.333,21080.000,1.000
191561.078,308191.688,443069.531,711184.188,196798.531,211223.375,228860.234,194265.094,-0.107,0.990,0.113,3.357,-3.540,1.434,73.333,21081.000,1.000
191430.453,307943.031,442836.906,711163.188,196266.828,211082.828,228525.047,194168.094,-0.108,0.988,0.113,3.357,-3.265,1.587,73.333,21082.000,1.000
191320.922,307695.125,442692.781,711158.625,195996.734,211038.125,228414.188,194182.672,-0.111,0.989,0.112,3.448,-3.082,1.587,73.333,21083.000,1.000
191350.797,307804.188,442834.125,711173.688,196396.656,211146.031,228690.281,194273.594,-0.114,0.990,0.111,3.418,-2.930,1.678,73.333,21084.000,1.000
191502.422,308090.906,443046.656,711190.188,196872.750,211256.891,228955.719,194323.938,-0.115,0.992,0.109,3.448,-2.899,1.770,73.333,21085.000,1.000
191563.219,308173.625,443051.469,711185.000,196812.219,211224.266,228869.891,194267.781,-0.118,0.994,0.108,3.571,-2.899,1.953,73.333,21086.000,1.000
191437.422,307928.469,442818.375,711163.813,196280.875,211085.063,228530.594,194167.281,-0.118,0.992,0.113,3.540,-2.747,2.167,73.333,21087.000,1.000
191325.672,307684.125,442671.313,711158.313,196010.766,211037.672,228413.563,194177.031,-0.121,0.991,0.113,3.448,-2.838,2.319,73.333,21088.000,1.000
191354.906,307800.344,442815.875,711176.063,196414.172,211148.359,228691.531,194271.813,-0.123,0.992,0.111,3.418,-2.747,2.502,73.333,21089.000,1.000
191501.891,308079.031,443025.375,711192.750,196887.406,211259.766,228957.328,194326.609,-0.125,0.989,0.111,3.418,-2.899,2.777,73.333,21090.000,1.000
191567.875,308161.563,443029.844,711189.250,196824.375,211232.406,228874.094,194278.953,-0.125,0.985,0.110,3.265,-3.052,2.960,73.333,21091.000,1.000
191430.000,307892.781,442782.344,711165.563,196276.219,211078.344,228522.719,194169.531,-0.127,0.982,0.112,3.326,-3.265,3.143,73.333,21092.000,1.000
191317.625,307644.156,442639.563,711159.938,196007.734,211031.594,228409.984,194176.313,-0.125,0.979,0.112,3.326,-3.418,3.448,73.333,21093.000,1.000
191350.516,307770.750,442790.500,711175.438,196415.703,211144.328,228694.922,194272.969,-0.127,0.981,0.115,3.479,-3.632,3.601,73.333,21094.000,1.000
191497.953,308065.781,443003.625,711189.625,196891.078,211257.875,228961.984,194326.438,-0.129,0.981,0.115,3.540,-3.937,3.906,73.333,21095.000,1.000
191556.250,308142.688,443003.625,711185.875,196825.266,211224.984,228872.313,194272.344,-0.130,0.984,0.113,3.601,-4.150,4.089,73.333,21096.000,1.000
191433.047,307895.375,442770.563,711165.250,196291.953,211083.266,228532.203,194174.266,-0.131,0.987,0.116,3.662,-4.425,4.364,73.333,21097.000,1.000
191320.922,307649.875,442621.781,711158.438,196018.813,211032.578,228413.656,194178.641,-0.128,0.997,0.112,3.662,-4.761,4.486,73.333,21098.000,1.000
191353.203,307789.250,442773.250,711177.125,196432.141,211147.641,228699.938,194275.203,-0.128,1.005,0.109,3.693,-5.035,4.761,73.333,21099.000,1.000
191494.203,308074.656,442981.031,711193.313,196905.016,211259.672,228963.500,194328.672,-0.126,1.010,0.109,3.448,-5.371,4.913,73.333,21100.000,1.000
191544.094,308144.031,442964.313,711185.313,196824.828,211218.813,228862.469,194266.891,-0.126,1.015,0.105,3.204,-5.768,5.096,73.333,21101.000,1.000
191425.094,307908.781,442734.531,711165.500,196297.594,211085.328,228529.344,194175.156,-0.124,1.016,0.106,3.082,-6.134,5.341,73.333,21102.000,1.000
191322.531,307670.625,442597.906,711163.813,196036.969,211048.313,228423.125,194193.391,-0.123,1.015,0.105,2.930,-6.409,5.463,73.333,21103.000,1.000
191350.078,307797.031,442744.531,711180.438,196448.422,211156.766,228705.656,194291.828,-0.119,1.010,0.104,2.777,-6.653,5.615,73.333,21104.000,1.000
191475.328,308080.000,442936.594,711189.563,196913.328,211247.594,228953.938,194326.609,-0.118,1.006,0.106,2.625,-6.958,5.890,73.333,21105.000,1.000
191523.703,308156.438,442923.625,711182.375,196837.156,211208.438,228857.734,194265.813,-0.114,0.999,0.105,2.594,-7.294,6.165,73.333,21106.000,1.000
191395.578,307891.719,442680.344,711159.500,196290.172,211063.422,228511.188,194163.000,-0.111,0.996,0.103,2.716,-7.446,6.317,73.333,21107.000,1.000
191286.063,307639.219,442537.188,711153.063,196019.438,211015.500,228395.141,194169.438,-0.110,0.993,0.099,2.869,-7.690,6.409,73.333,21108.000,1.000
191323.875,307775.125,442696.094,711173.063,196442.250,211131.813,228690.359,194271.453,-0.109,0.991,0.101,3.021,-7.965,6.592,73.333,21109.000,1.000
191463.266,308065.094,442901.531,711189.625,196913.516,211238.656,228950.094,194320.797,-0.111,0.990,0.101,3.143,-8.057,6.897,73.333,21110.000,1.000
191510.297,308140.000,442886.781,711179.813,196828.672,211193.859,228843.422,194255.438,-0.110,0.987,0.103,3.296,-8.331,7.111,73.333,21111.000,1.000
191377.609,307888.500,442640.375,711154.938,196271.578,211040.531,228487.406,194144.219,-0.110,0.985,0.105,3.418,-8.575,7.111,73.333,21112.000,1.000
191266.391,307648.344,442493.406,711148.063,195991.188,210986.078,228366.266,194149.047,-0.108,0.980,0.101,3.510,-8.789,7.233,73.333,21113.000,1.000
191297.328,307782.188,442647.188,711167.813,196407.375,211095.781,228655.578,194248.203,-0.111,0.979,0.107,3.632,-9.033,7.202,73.333,21114.000,1.000
191430.719,308072.781,442849.781,711180.625,196877.844,211199.938,228915.313,194296.656,-0.110,0.977,0.109,3.723,-9.338,7.202,73.333,21115.000,1.000
191478.375,308146.531,442836.906,711172.750,196798.797,211159.438,228815.984,194235.859,-0.108,0.976,0.110,3.693,-9.674,7.172,73.333,21116.000,1.000
191356.781,307897.188,442600.781,711150.563,196257.531,211014.875,228472.031,194133.766,-0.108,0.976,0.112,3.601,-10.010,7.019,73.333,21117.000,1.000
191265.766,307676.344,442475.438,711148.313,196002.094,210979.375,228370.281,194156.016,-0.108,0.981,0.112,3.662,-10.315,7.019,73.333,21118.000,1.000
191309.578,307819.938,442646.625,711167.563,196438.672,211105.984,228673.906,194263.766,-0.109,0.986,0.113,3.662,-10.742,6.927,73.333,21119.000,1.000
191442.156,308097.438,442850.656,711182.563,196913.328,211210.500,228934.266,194309.984,-0.106,0.993,0.114,3.510,-11.017,6.805,73.333,21120.000,1.000
191494.641,308173.438,442839.031,711175.250,196841.719,211171.156,228835.297,194248.375,-0.102,0.999,0.111,3.143,-11.414,6.866,73.333,21121.000,1.000
191361.250,307908.719,442586.375,711149.125,196290.250,211015.766,228478.203,194134.922,-0.100,1.006,0.112,2.869,-11.658,6.897,73.333,21122.000,1.000
191244.938,307654.688,442430.438,711140.563,196001.469,210956.844,228348.375,194133.313,-0.095,1.015,0.108,2.686,-11.963,6.958,73.333,21123.000,1.000
191280.250,307784.156,442585.563,711159.688,196418.734,211070.297,228637.875,194233.547,-0.093,1.025,0.105,2.228,-12.238,7.050,73.333,21124.000,1.000
191433.578,308096.281,442804.250,711180.500,196912.438,211193.328,228917.281,194298.984,-0.090,1.033,0.107,1.862,-12.421,7.141,73.333,21125.000,1.000
191499.391,308197.313,442811.250,711179.188,196863.531,211178.313,228846.641,194258.031,-0.085,1.044,0.108,1.282,-12.665,7.172,73.333,21126.000,1.000
191370.547,307942.500,442563.313,711153.875,196313.406,211030.609,228495.453,194148.609,-0.083,1.047,0.108,0.641,-12.848,7.385,73.333,21127.000,1.000
191268.531,307705.031,442421.250,711151.875,196034.641,210992.438,228379.047,194163.094,-0.082,1.051,0.109,0.000,-13.000,7.507,73.333,21128.000,1.000
191307.969,307852.813,442583.969,711173.375,196459.328,211113.750,228676.328,194268.047,-0.082,1.048,0.110,-0.702,-13.245,7.751,73.333,21129.000,1.000
191439.484,308134.281,442784.688,711188.125,196932.016,211217.563,228937.844,194315.078,-0.083,1.039,0.108,-1.221,-13.336,7.935,73.333,21130.000,1.000
191478.734,308195.063,442757.156,711178.188,196842.250,211167.766,228835.109,194246.594,-0.081,1.025,0.107,-1.587,-13.489,8.057,73.333,21131.000,1.000
191360.891,307961.625,442518.250,711156.000,196301.344,211024.344,228494.734,194147.344,-0.078,1.012,0.107,-1.831,-13.702,8.148,73.333,21132.000,1.000
191253.063,307723.375,442374.938,711152.438,196021.859,210978.313,228374.844,194153.516,-0.078,1.001,0.112,-1.740,-13.824,8.270,73.333,21133.000,1.000
191281.953,307857.281,442530.844,711170.125,196438.766,211088.547,228661.578,194246.766,-0.077,0.988,0.116,-1.556,-14.130,8.209,73.333,21134.000,1.000
191414.891,308147.969,442730.594,711183.563,196910.922,211190.203,228921.578,194294.969,-0.073,0.979,0.116,-1.099,-14.282,8.240,73.333,21135.000,1.000
191465.234,308231.281,442714.750,711176.813,196833.859,211152.469,228826.891,194236.313,-0.073,0.969,0.117,-0.702,-14.496,8.179,73.333,21136.000,1.000
191347.578,307991.125,442482.656,711157.375,196295.359,211018.719,228485.266,194137.422,-0.073,0.964,0.121,-0.214,-14.648,8.209,73.333,21137.000,1.000
191238.234,307749.906,442343.188,711152.500,196012.109,210971.234,228362.422,194145.563,-0.069,0.960,0.120,0.458,-14.832,8.209,73.333,21138.000,1.000
191271.391,307886.625,442505.031,711169.313,196430.891,211080.859,228650.844,194244.359,-0.067,0.955,0.119,1.099,-14.923,8.087,73.333,21139.000,1.000
191402.375,308174.156,442710.125,711182.625,196908.953,211184.203,228914.859,194293.797,-0.067,0.953,0.121,1.801,-15.045,8.148,73.333,21140.000,1.000
191459.156,308263.125,442702.531,711179.250,196838.234,211153.359,228827.063,194239.891,-0.063,0.950,0.127,2.625,-15.137,7.904,73.333,21141.000,1.000
191345.781,308025.750,442467.281,711159.500,196296.609,211017.281,228488.750,194140.641,-0.062,0.947,0.128,3.265,-15.259,7.721,73.333,21142.000,1.000
191235.906,307780.500,442317.094,711151.438,196003.625,210964.797,228358.391,194146.016,-0.061,0.944,0.126,3.937,-15.411,7.751,73.333,21143.000,1.000
191264.609,307911.313,442474.000,711167.000,196419.547,211070.750,228638.234,194240.609,-0.061,0.943,0.127,4.669,-15.411,7.660,73.333,21144.000,1.000
191405.688,308202.844,442686.875,711185.188,196908.500,211180.094,228910.578,194295.859,-0.059,0.947,0.125,5.219,-15.442,7.629,73.333,21145.000,1.000
191459.328,308270.625,442674.094,711179.500,196841.453,211147.375,228825.547,194239.891,-0.062,0.954,0.123,5.981,-15.533,7.416,73.333,21146.000,1.000
191339.875,308014.375,442433.500,711155.125,196295.000,211004.500,228483.203,194136.891,-0.063,0.963,0.123,6.439,-15.564,7.446,73.333,21147.000,1.000
191237.875,307773.625,442296.875,711150.563,196014.797,210956.047,228363.844,194145.828,-0.062,0.971,0.124,6.866,-15.686,7.294,73.333,21148.000,1.000
191274.250,307904.938,442463.188,711168.375,196443.406,211070.750,228654.156,194246.859,-0.064,0.977,0.127,7.141,-15.747,7.202,73.333,21149.000,1.000
191412.219,308194.094,442675.688,711185.813,196933.359,211184.828,228924.344,194303.813,-0.065,0.981,0.127,7.263,-15.930,7.080,73.333,21150.000,1.000
191451.281,308268.375,442650.469,711178.000,196848.328,211143.172,228820.984,194232.109,-0.066,0.983,0.125,7.324,-16.113,7.019,73.333,21151.000,1.000
191330.141,308019.656,442407.750,711156.875,196297.953,211001.188,228474.172,194127.859,-0.069,0.986,0.123,7.324,-16.296,6.927,73.333,21152.000,1.000
191230.094,307777.813,442273.094,711153.250,196020.250,210959.438,228359.203,194143.594,-0.069,0.989,0.118,7.355,-16.571,6.958,73.333,21153.000,1.000
191273.359,307922.906,442446.469,711172.313,196458.078,211078.891,228661.313,194250.891,-0.068,0.993,0.117,7.385,-16.602,6.836,73.333,21154.000,1.000
191402.469,308206.531,442647.875,711187.813,196936.141,211183.938,228925.594,194298.453,-0.070,0.997,0.117,7.324,-16.846,6.714,73.333,21155.000,1.000
191438.141,308248.438,442613.813,711179.063,196833.406,211139.953,228815.531,194232.109,-0.070,0.998,0.118,7.202,-17.120,6.683,73.333,21156.000,1.000
191333.359,307994.281,442378.250,711157.500,196280.594,211007.266,228474.625,194139.750,-0.071,1.001,0.118,6.989,-17.365,6.622,73.333,21157.000,1.000
191235.719,307743.844,442246.906,711152.688,196003.531,210964.172,228359.563,194152.531,-0.070,1.000,0.115,6.836,-17.548,6.378,73.333,21158.000,1.000
191279.531,307896.094,442432.063,711171.125,196456.469,211080.938,228664.250,194250.172,-0.068,0.996,0.112,6.622,-17.731,6.348,73.333,21159.000,1.000
191401.938,308182.563,442625.719,711184.875,196931.219,211179.828,228918.891,194288.797,-0.064,0.995,0.106,6.409,-18.097,6.378,73.333,21160.000,1.000
191428.031,308214.844,442568.844,711175.563,196801.125,211130.203,228791.219,194222.719,-0.059,0.993,0.108,6.470,-18.036,6.317,73.333,21161.000,1.000
191317.266,307948.313,442316.719,711155.313,196222.750,210987.516,228436.453,194126.969,-0.058,0.992,0.104,6.561,-18.066,6.134,73.333,21162.000,1.000
191242.781,307740.438,442206.500,711153.500,195980.109,210949.344,228339.000,194139.656,-0.057,0.989,0.102,6.561,-18.005,6.134,73.333,21163.000,1.000
191305.734,307948.844,442425.531,711174.438,196493.844,211085.422,228680.078,194251.688,-0.054,0.987,0.098,6.653,-18.005,6.073,73.333,21164.000,1.000
191407.203,308211.781,442610.781,711188.000,196959.563,211181.172,228927.375,194291.297,-0.053,0.987,0.097,6.714,-17.914,6.012,73.333,21165.000,1.000
191408.375,308185.969,442519.219,711175.500,196773.063,211114.563,228762.875,194203.594,-0.053,0.990,0.097,6.958,-17.761,6.012,73.333,21166.000,1.000
191296.609,307886.188,442255.219,711152.375,196165.984,210970.078,228396.484,194104.703,-0.054,0.996,0.096,7.050,-17.639,6.012,73.333,21167.000,1.000
191249.938,307710.031,442182.781,711152.375,195975.281,210953.984,228339.984,194143.328,-0.050,1.004,0.096,7.202,-17.578,6.012,73.333,21168.000,1.000
191352.672,308006.875,442474.781,711179.000,196613.547,211118.406,228753.844,194277.344,-0.050,1.013,0.097,7.080,-17.456,6.012,73.333,21169.000,1.000
191421.781,308271.156,442642.156,711189.000,197075.703,211204.594,228986.750,194298.094,-0.052,1.029,0.093,6.897,-17.059,5.951,73.333,21170.000,1.000
191347.391,308110.125,442437.969,711167.563,196710.656,211084.875,228710.297,194178.641,-0.053,1.054,0.088,6.683,-16.785,5.890,73.333,21171.000,1.000
191230.625,307708.000,442110.719,711142.625,195980.906,210918.766,228282.578,194079.938,-0.057,1.088,0.085,6.348,-16.571,5.798,73.333,21172.000,1.000
191277.391,307643.969,442140.250,711154.875,195939.781,210969.813,228337.203,194164.969,-0.060,1.123,0.088,5.859,-16.418,5.951,73.333,21173.000,1.000
191431.250,308083.125,442529.969,711189.563,196773.234,211181.078,228858.266,194313.641,-0.062,1.154,0.094,4.822,-16.357,6.104,73.333,21174.000,1.000
191438.500,308302.719,442640.750,711193.750,197210.703,211232.750,229046.297,194299.344,-0.061,1.176,0.098,3.387,-16.327,6.256,73.333,21175.000,1.000
191292.406,307985.063,442317.094,711164.938,196689.281,211063.594,228662.203,194149.859,-0.060,1.187,0.105,1.526,-16.449,6.714,73.333,21176.000,1.000
191170.547,307484.563,441943.531,711140.875,195880.141,210892.563,228192.906,194051.156,-0.057,1.182,0.114,-0.580,-16.510,7.263,73.333,21177.000,1.000
191268.453,307437.094,442025.781,711155.313,195921.359,210978.938,228305.109,194157.625,-0.052,1.166,0.113,-2.441,-16.449,7.874,73.333,21178.000,1.000
191529.328,308077.688,442590.844,711199.813,197036.266,211283.547,229004.891,194363.094,-0.050,1.146,0.110,-4.089,-16.418,8.423,73.333,21179.000,1.000
191543.547,308453.719,442794.594,711210.375,197663.016,211368.391,229281.172,194354.063,-0.045,1.124,0.108,-5.096,-16.296,9.033,73.333,21180.000,1.000
191162.594,307810.094,442187.344,711159.750,196705.734,211040.625,228593.172,194091.203,-0.038,1.105,0.110,-5.829,-15.991,9.583,73.333,21181.000,1.000
190760.703,306563.125,441293.094,711100.563,194926.359,210620.406,227575.547,193872.875,-0.032,1.084,0.111,-6.195,-15.656,10.010,73.333,21182.000,1.000
191083.281,306589.781,441507.156,711132.750,194945.750,210790.734,227804.703,194102.375,-0.029,1.067,0.112,-6.561,-15.259,10.345,73.333,21183.000,1.000
191785.844,308106.563,442739.094,711225.188,197056.391,211407.547,229179.516,194515.531,-0.026,1.044,0.107,-6.714,-14.923,10.651,73.333,21184.000,1.000
191823.484,309023.531,443238.875,711242.313,198288.859,211574.031,229753.406,194496.484,-0.022,1.029,0.102,-6.470,-14.496,10.956,73.333,21185.000,1.000
191164.469,308142.063,442350.063,711164.250,196987.719,211077.906,228776.906,194091.297,-0.020,1.016,0.099,-5.981,-13.977,11.139,73.333,21186.000,1.000
190656.094,306614.719,441219.531,711093.188,194814.328,210555.953,227515.281,193822.531,-0.018,1.006,0.099,-5.341,-13.489,11.230,73.333,21187.000,1.000
191049.125,306619.281,441463.063,711132.250,194835.422,210755.859,227764.828,194087.891,-0.019,0.996,0.093,-4.791,-13.031,11.261,73.333,21188.000,1.000
191831.000,308256.156,442802.281,711234.625,197112.094,211421.938,229235.922,194535.203,-0.016,0.982,0.088,-4.211,-12.573,11.169,73.333,21189.000,1.000
191856.563,309203.063,443301.188,711247.563,198376.484,211576.531,229803.578,194499.250,-0.015,0.969,0.085,-3.418,-12.054,10.986,73.333,21190.000,1.000
191180.016,308318.281,442389.156,711163.938,197054.328,211065.031,228805.156,194084.234,-0.015,0.961,0.076,-2.625,-11.505,10.864,73.333,21191.000,1.000
190680.422,306824.031,441274.344,711093.188,194924.469,210554.875,227565.266,193818.781,-0.015,0.952,0.067,-1.617,-11.108,10.529,73.333,21192.000,1.000
191057.891,306840.031,441506.438,711131.313,194960.781,210751.563,227808.625,194071.266,-0.015,0.947,0.062,-0.519,-10.529,10.223,73.333,21193.000,1.000
191779.500,308393.125,442755.281,711227.188,197121.203,211377.234,229194.438,194490.234,-0.015,0.943,0.055,0.580,-10.071,9.766,73.333,21194.000,1.000
191794.875,309280.031,443204.531,711240.688,198287.516,211522.969,229712.906,194457.953,-0.016,0.942,0.050,1.495,-9.613,9.369,73.333,21195.000,1.000
191184.219,308452.219,442351.875,711163.625,197041.188,211051.531,228774.859,194075.016,-0.016,0.940,0.044,2.472,-9.094,9.033,73.333,21196.000,1.000
190757.391,307089.656,441349.156,711099.438,195096.406,210593.141,227646.625,193843.375,-0.013,0.937,0.039,3.479,-8.667,8.606,73.333,21197.000,1.000
191123.875,307133.625,441597.000,711136.875,195174.813,210790.547,227902.063,194090.313,-0.011,0.931,0.029,4.425,-8.240,8.179,73.333,21198.000,1.000
191765.906,308538.844,442746.313,711228.000,197164.844,211371.781,229185.594,194479.313,-0.004,0.924,0.021,5.310,-7.874,7.843,73.333,21199.000,1.000
191745.875,309266.438,443112.188,711238.813,198167.094,211488.109,229624.578,194438.813,0.004,0.914,0.008,6.470,-7.355,7.599,73.333,21200.000,1.000
191199.781,308493.250,442330.844,711166.500,197006.313,211058.063,228764.219,194091.734,0.013,0.900,-0.003,7.721,-6.714,7.416,73.333,21201.000,1.000
190845.813,307316.469,441470.500,711109.000,195295.422,210665.375,227782.609,193892.547,0.023,0.886,-0.014,9.094,-5.951,7.294,73.333,21202.000,1.000
191170.547,307367.531,441722.969,711143.688,195415.328,210851.703,228042.156,194114.984,0.033,0.878,-0.027,10.651,-5.005,7.294,73.333,21203.000,1.000
191688.922,308520.344,442703.594,711217.063,197153.391,211339.328,229153.500,194444.000,0.039,0.873,-0.037,12.360,-3.876,7.507,73.333,21204.000,1.000
191637.969,309025.500,442950.719,711220.375,197927.125,211405.406,229471.063,194391.250,0.044,0.875,-0.044,14.343,-2.808,7.782,73.333,21205.000,1.000
191188.969,308311.656,442257.000,711159.063,196858.891,211026.766,228695.734,194087.531,0.043,0.881,-0.049,16.235,-1.648,7.935,73.333,21206.000,1.000
190931.469,307347.938,441550.500,711115.938,195391.266,210707.047,227869.344,193931.609,0.041,0.893,-0.051,17.761,-0.671,8.301,73.333,21207.000,1.000
191220.438,307464.875,441793.781,711149.125,195529.313,210879.688,228119.141,194138.594,0.032,0.906,-0.058,18.982,0.305,8.698,73.333,21208.000,1.000
191654.953,308536.156,442654.500,711214.063,197092.422,211311.438,229102.359,194424.063,0.023,0.918,-0.062,20.081,1.068,8.911,73.333,21209.000,1.000
191583.156,308988.125,442837.969,711213.875,197764.938,211358.906,229360.375,194362.828,0.011,0.932,-0.065,20.813,1.648,9.094,73.333,21210.000,1.000
191193.797,308326.250,442191.375,711158.875,196793.625,211031.766,228658.000,194095.766,0.001,0.945,-0.065,21.332,2.136,9.216,73.333,21211.000,1.000
190994.063,307465.688,441578.594,711122.188,195527.438,210776.328,227951.234,193970.594,-0.009,0.959,-0.065,21.606,2.258,9.308,73.333,21212.000,1.000
191253.969,307540.719,441829.094,711152.813,195711.969,210950.859,228203.984,194155.391,-0.017,0.977,-0.061,21.637,2.106,9.125,73.333,21213.000,1.000
191614.266,308354.219,442616.313,711211.438,197117.891,211349.609,229082.063,194402.078,-0.026,0.994,-0.060,21.088,1.862,9.033,73.333,21214.000,1.000
191535.766,308573.969,442766.531,711210.750,197684.297,211407.813,229285.906,194340.734,-0.030,1.010,-0.055,20.447,1.434,8.820,73.333,21215.000,1.000
191198.984,307847.000,442193.344,711159.125,196778.156,211138.797,228636.625,194101.484,-0.034,1.024,-0.052,19.257,1.007,8.667,73.333,21216.000,1.000
191021.422,306989.438,441627.656,711123.188,195581.531,210926.359,227969.750,193979.891,-0.036,1.036,-0.050,17.853,0.305,8.392,73.333,21217.000,1.000
191257.625,306987.625,441840.000,711152.438,195732.891,211113.047,228193.797,194149.766,-0.037,1.045,-0.042,16.357,-0.244,8.179,73.333,21218.000,1.000
191590.406,307761.906,442575.813,711204.938,197065.594,211495.078,229025.109,194381.234,-0.036,1.054,-0.038,14.618,-0.946,7.996,73.333,21219.000,1.000
191513.422,307989.719,442738.281,711202.313,197611.609,211552.125,229223.313,194317.313,-0.032,1.058,-0.034,12.695,-1.648,7.843,73.333,21220.000,1.000
191191.016,307311.281,442213.906,711156.875,196742.563,211294.813,228602.484,194081.641,-0.029,1.056,-0.029,10.773,-2.167,7.782,73.333,21221.000,1.000
191011.484,306457.906,441678.281,711124.563,195576.250,211080.766,227954.984,193962.453,-0.022,1.051,-0.022,8.667,-2.747,7.629,73.333,21222.000,1.000
191228.484,306484.813,441872.375,711149.313,195706.609,211227.484,228170.906,194128.313,-0.014,1.042,-0.013,6.836,-3.174,7.446,73.333,21223.000,1.000
191559.281,307311.375,442594.063,711201.813,197013.563,211551.313,228994.438,194365.859,-0.006,1.032,-0.012,5.066,-3.601,7.324,73.333,21224.000,1.000
191490.172,307616.344,442744.625,711203.500,197559.750,211515.375,229200.250,194314.188,0.001,1.022,-0.007,3.418,-3.693,7.172,73.333,21225.000,1.000
191179.047,307039.938,442199.250,711156.375,196708.406,211157.203,228596.125,194085.391,0.009,1.015,-0.005,2.014,-3.723,7.111,73.333,21226.000,1.000
191011.141,306344.875,441652.063,711121.750,195557.297,210863.859,227960.891,193966.484,0.015,1.009,0.000,0.732,-3.693,6.958,73.333,21227.000,1.000
191231.797,306490.344,441857.625,711152.000,195696.953,210983.125,228187.813,194137.250,0.020,1.004,0.004,-0.397,-3.571,6.805,73.333,21228.000,1.000
191555.703,307371.281,442566.250,711206.688,197000.500,211316.891,229009.094,194371.766,0.025,0.998,0.011,-1.404,-3.326,6.653,73.333,21229.000,1.000
191508.953,307770.938,442735.781,711211.813,197573.688,211365.344,229244.156,194340.469,0.027,0.992,0.018,-2.197,-2.991,6.500,73.333,21230.000,1.000
191201.031,307271.063,442204.344,711167.625,196745.516,211083.359,228650.219,194112.031,0.028,0.993,0.021,-3.113,-2.655,6.256,73.333,21231.000,1.000
191024.547,306566.156,441662.094,711133.125,195596.641,210841.156,228001.938,193983.016,0.026,0.991,0.030,-3.723,-2.380,6.104,73.333,21232.000,1.000
191243.953,306672.563,441855.656,711159.125,195720.375,210981.516,228205.156,194146.453,0.022,0.987,0.036,-4.333,-2.075,6.012,73.333,21233.000,1.000
191577.531,307527.031,442551.688,711212.250,197019.375,211327.531,229020.188,194387.672,0.018,0.983,0.040,-4.791,-1.831,5.829,73.333,21234.000,1.000
191515.203,307860.250,442689.656,711210.750,197571.016,211353.453,229228.141,194334.922,0.013,0.979,0.049,-5.249,-1.709,5.463,73.333,21235.000,1.000
191212.391,307334.344,442154.906,711164.063,196742.563,211068.344,228631.266,194106.141,0.009,0.981,0.053,-5.554,-1.465,4.974,73.333,21236.000,1.000
191043.859,306644.500,441619.625,711131.750,195606.734,210834.531,227996.656,193986.156,0.004,0.985,0.054,-5.768,-1.312,4.517,73.333,21237.000,1.000
191246.906,306744.438,441806.313,711158.688,195715.734,210968.469,228196.031,194145.297,0.000,0.988,0.057,-5.890,-1.343,4.211,73.333,21238.000,1.000
191559.828,307584.344,442480.875,711209.813,196976.453,211299.188,228993.813,194377.125,-0.006,0.995,0.064,-5.920,-1.312,3.693,73.333,21239.000,1.000
191500.094,307936.969,442625.344,711213.688,197534.000,211333.516,229215.453,194340.563,-0.011,1.000,0.067,-6.195,-1.434,3.143,73.333,21240.000,1.000
191207.656,307440.656,442113.156,711169.625,196734.969,211060.375,228640.922,194119.359,-0.014,1.003,0.077,-6.348,-1.587,2.441,73.333,21241.000,1.000
191038.219,306752.750,441582.344,711134.438,195604.688,210819.609,228006.047,193985.969,-0.017,1.006,0.080,-6.622,-1.862,1.862,73.333,21242.000,1.000
191237.156,306823.750,441751.500,711157.500,195690.781,210942.813,228187.984,194137.781,-0.018,1.005,0.087,-6.866,-2.136,1.251,73.333,21243.000,1.000
191542.750,307623.688,442404.875,711210.125,196923.703,211265.844,228964.484,194364.609,-0.017,0.999,0.091,-7.111,-2.380,0.824,73.333,21244.000,1.000
191495.094,307965.125,442551.969,711213.750,197483.125,211304.813,229187.109,194329.109,-0.014,0.994,0.088,-7.111,-2.594,0.336,73.333,21245.000,1.000
191215.250,307472.844,442048.594,711171.625,196707.703,211037.047,228625.813,194111.313,-0.009,0.987,0.091,-7.050,-2.869,0.031,73.333,21246.000,1.000
191052.531,306809.906,441529.500,711139.563,195611.844,210795.563,228005.156,193987.766,0.000,0.983,0.095,-6.897,-2.808,-0.214,73.333,21247.000,1.000
191227.594,306875.781,441687.844,711161.125,195683.453,210888.625,228167.875,194131.344,0.006,0.981,0.100,-6.683,-2.716,-0.427,73.333,21248.000,1.000
191514.766,307669.719,442332.625,711211.625,196890.094,211188.594,228928.906,194353.172,0.013,0.973,0.103,-6.287,-2.533,-0.427,73.333,21249.000,1.000
191475.688,308057.469,442481.156,711214.188,197447.453,211214.516,229158.406,194320.078,0.022,0.966,0.109,-5.798,-2.075,-0.275,73.333,21250.000,1.000
191209.797,307677.938,441987.969,711172.563,196697.594,210937.359,228620.719,194108.016,0.027,0.959,0.109,-5.280,-1.556,-0.092,73.333,21251.000,1.000
191057.094,307085.188,441460.563,711140.750,195620.781,210690.328,228018.109,193993.922,0.029,0.961,0.107,-4.761,-0.946,0.214,73.333,21252.000,1.000
191231.516,307185.219,441603.438,711162.188,195681.844,210784.469,228179.844,194140.109,0.029,0.963,0.108,-4.181,-0.397,0.458,73.333,21253.000,1.000
191503.766,307986.594,442231.156,711209.125,196856.375,211079.328,228921.578,194354.234,0.027,0.969,0.112,-3.387,0.275,0.641,73.333,21254.000,1.000
191462.906,308398.750,442378.500,711214.063,197414.547,211115.547,229152.234,194321.063,0.019,0.974,0.115,-2.899,0.763,0.793,73.333,21255.000,1.000
191222.672,308068.563,441936.313,711177.563,196703.500,210877.359,228638.781,194127.063,0.013,0.981,0.117,-2.686,1.160,0.854,73.333,21256.000,1.000
191071.219,307508.969,441468.000,711146.250,195648.672,210657.609,228040.906,194005.188,0.006,0.989,0.120,-2.289,1.465,0.793,73.333,21257.000,1.000
191230.266,307610.906,441612.281,711168.438,195696.141,210766.500,228188.438,194141.453,-0.004,0.998,0.122,-2.258,1.587,0.702,73.333,21258.000,1.000
191491.875,308397.938,442205.875,711212.688,196843.594,211078.625,228913.438,194351.109,-0.012,1.004,0.124,-2.289,1.526,0.427,73.333,21259.000,1.000
191464.516,308770.844,442364.563,711218.938,197410.609,211151.313,229150.984,194325.266,-0.020,1.012,0.126,-2.472,1.465,0.214,73.333,21260.000,1.000
191229.109,308353.156,441935.406,711181.938,196724.781,210935.484,228647.359,194128.484,-0.024,1.015,0.130,-2.625,1.221,-0.275,73.333,21261.000,1.000
191077.469,307721.563,441464.313,711149.125,195686.313,210726.359,228052.453,194000.906,-0.029,1.020,0.134,-2.838,0.793,-0.519,73.333,21262.000,1.000
191228.031,307724.438,441602.719,711168.000,195727.078,210843.656,228186.828,194134.125,-0.031,1.018,0.136,-3.204,0.427,-0.763,73.333,21263.000,1.000
191479.000,308386.500,442195.125,711212.500,196848.781,211145.938,228886.797,194336.453,-0.032,1.015,0.135,-3.540,0.092,-1.160,73.333,21264.000,1.000
191454.688,308709.688,442360.625,711218.063,197411.781,211207.453,229121.578,194311.141,-0.034,1.006,0.133,-3.693,-0.214,-1.404,73.333,21265.000,1.000
191230.266,308325.438,441933.875,711181.250,196747.578,210986.984,228635.203,194119.719,-0.038,0.995,0.132,-3.967,-0.763,-1.648,73.333,21266.000,1.000
191078.547,307744.031,441460.219,711148.250,195722.078,210772.047,228058.172,194000.016,-0.044,0.982,0.126,-3.906,-1.160,-2.075,73.333,21267.000,1.000
191208.906,307772.438,441572.063,711164.125,195728.875,210864.125,228182.000,194122.500,-0.049,0.970,0.122,-3.479,-1.678,-2.350,73.333,21268.000,1.000
191456.641,308455.063,442149.281,711210.250,196823.922,211162.656,228882.859,194332.422,-0.051,0.959,0.120,-2.808,-2.197,-2.747,73.333,21269.000,1.000
191434.031,308784.188,442313.875,711215.125,197383.266,211222.750,229123.188,194310.344,-0.053,0.949,0.116,-2.106,-2.747,-3.082,73.333,21270.000,1.000
191219.891,308392.313,441909.375,711178.250,196735.063,211007.813,228650.750,194121.063,-0.052,0.942,0.110,-1.312,-3.448,-3.296,73.333,21271.000,1.000
191085.609,307795.875,441453.406,711145.938,195716.984,210796.188,228076.313,194004.203,-0.048,0.940,0.106,-0.244,-3.845,-3.510,73.333,21272.000,1.000
191220.344,307800.438,441571.594,711165.375,195721.359,210891.844,228195.313,194127.688,-0.042,0.946,0.101,0.824,-4.303,-3.510,73.333,21273.000,1.000
191459.688,308453.281,442137.813,711211.438,196803.625,211182.063,228884.469,194332.609,-0.036,0.954,0.099,1.709,-4.608,-3.479,73.333,21274.000,1.000
191437.328,308768.250,442298.844,711217.000,197367.875,211239.281,229124.609,194310.875,-0.029,0.967,0.094,2.411,-4.852,-3.571,73.333,21275.000,1.000
191226.688,308387.031,441896.781,711180.438,196741.938,211019.078,228655.766,194121.250,-0.026,0.980,0.089,3.082,-4.852,-3.510,73.333,21276.000,1.000
191076.406,307787.188,441439.188,711148.688,195742.109,210799.219,228081.141,193994.828,-0.022,0.992,0.087,3.571,-4.822,-3.326,73.333,21277.000,1.000
191198.266,307771.469,441542.469,711164.250,195743.172,210886.391,228186.203,194114.625,-0.018,1.002,0.086,3.815,-4.761,-3.387,73.333,21278.000,1.000
191438.500,308404.656,442099.719,711208.875,196820.438,211176.516,228865.688,194321.875,-0.016,1.009,0.087,3.693,-4.486,-3.204,73.333,21279.000,1.000
191430.984,308724.094,442271.656,711215.750,197394.969,211239.906,229111.375,194312.578,-0.014,1.017,0.087,3.601,-4.303,-2.930,73.333,21280.000,1.000
191234.203,308353.250,441885.156,711183.000,196789.859,211029.453,228656.656,194126.344,-0.013,1.022,0.090,3.326,-4.059,-2.838,73.333,21281.000,1.000
191098.391,307766.906,441433.281,711154.125,195798.516,210817.469,228090.172,194003.313,-0.013,1.027,0.091,3.021,-3.784,-2.747,73.333,21282.000,1.000
191221.328,307751.000,441529.594,711170.750,195778.578,210897.563,228187.984,194121.609,-0.013,1.034,0.093,2.655,-3.418,-2.472,73.333,21283.000,1.000
191440.109,308364.500,442062.375,711209.375,196810.156,211162.578,228841.281,194311.328,-0.015,1.042,0.095,2.258,-3.143,-2.136,73.333,21284.000,1.000
191427.141,308678.781,442230.344,711214.938,197373.328,211227.219,229092.344,194302.469,-0.016,1.048,0.099,1.617,-2.869,-1.953,73.333,21285.000,1.000
191239.391,308326.938,441860.313,711182.813,196782.625,211030.781,228655.766,194130.094,-0.016,1.052,0.103,0.854,-2.777,-1.709,73.333,21286.000,1.000
191094.281,307747.875,441412.906,711152.438,195791.547,210818.625,228089.641,194009.313,-0.017,1.055,0.105,-0.031,-2.441,-1.587,73.333,21287.000,1.000
191217.219,307728.281,441504.375,711170.313,195755.156,210901.141,228183.969,194129.563,-0.018,1.054,0.103,-0.824,-2.197,-1.282,73.333,21288.000,1.000
191449.313,308346.250,442043.406,711212.000,196786.109,211180.188,228845.031,194321.969,-0.020,1.052,0.097,-1.556,-1.984,-1.190,73.333,21289.000,1.000
191447.891,308677.969,442219.625,711219.313,197357.953,211248.500,229098.953,194309.000,-0.021,1.050,0.097,-2.014,-1.923,-1.007,73.333,21290.000,1.000
191254.047,308335.281,441840.281,711184.375,196766.531,211042.406,228657.281,194129.203,-0.021,1.048,0.094,-2.411,-1.648,-1.007,73.333,21291.000,1.000
191109.125,307771.094,441389.313,711152.250,195782.875,210829.984,228094.563,194005.641,-0.021,1.044,0.094,-2.747,-1.526,-1.038,73.333,21292.000,1.000
191217.125,307748.031,441467.344,711168.500,195742.109,210903.109,228177.969,194119.281,-0.019,1.039,0.092,-3.021,-1.190,-1.007,73.333,21293.000,1.000
191445.828,308362.094,442006.125,711212.625,196775.016,211184.828,228840.391,194323.297,-0.020,1.030,0.089,-3.113,-1.099,-0.885,73.333,21294.000,1.000
191455.219,308702.281,442192.000,711220.750,197359.656,211259.766,229102.531,194321.250,-0.021,1.019,0.089,-3.082,-0.916,-0.885,73.333,21295.000,1.000
191264.328,308358.250,441816.938,711185.625,196774.391,211049.922,228662.016,194136.359,-0.025,1.008,0.087,-2.869,-0.732,-1.007,73.333,21296.000,1.000
191125.391,307797.406,441373.219,711154.500,195794.406,210838.297,228102.250,194013.688,-0.027,0.997,0.086,-2.594,-0.671,-1.312,73.333,21297.000,1.000
191235.453,307761.188,441446.781,711169.750,195740.219,210908.484,228180.750,194127.500,-0.029,0.987,0.083,-2.045,-0.549,-1.678,73.333,21298.000,1.000
191464.422,308371.469,441978.156,711215.813,196763.578,211184.484,228838.250,194327.422,-0.031,0.983,0.079,-1.282,-0.427,-2.197,73.333,21299.000,1.000
191462.734,308699.875,442152.500,711221.000,197336.672,211246.172,229093.594,194318.828,-0.031,0.986,0.081,-0.366,-0.397,-2.594,73.333,21300.000,1.000
191268.453,308363.688,441781.719,711185.688,196754.188,211039.906,228659.344,194137.969,-0.030,0.990,0.078,0.488,-0.336,-3.082,73.333,21301.000,1.000
191128.703,307799.000,441339.063,711155.563,195771.875,210831.313,228097.688,194018.609,-0.025,1.004,0.080,1.221,-0.214,-3.510,73.333,21302.000,1.000
191237.516,307747.156,441413.000,711171.188,195713.766,210905.609,228170.906,194124.109,-0.021,1.010,0.079,1.770,-0.183,-3.754,73.333,21303.000,1.000
191477.219,308350.469,441950.156,711215.813,196739.531,211186.359,228827.609,194327.234,-0.016,1.015,0.079,2.228,0.031,-3.906,73.333,21304.000,1.000
191471.750,308657.750,442122.344,711221.188,197313.969,211246.609,229080.359,194315.250,-0.015,1.018,0.078,2.533,0.214,-3.998,73.333,21305.000,1.000
191282.578,308304.875,441752.219,711183.750,196733.188,211036.781,228646.375,194136.438,-0.022,1.019,0.079,2.899,0.458,-4.150,73.333,21306.000,1.000
191148.906,307739.625,441317.500,711155.000,195755.875,210828.375,228090.531,194020.391,-0.029,1.021,0.082,3.113,0.610,-4.395,73.333,21307.000,1.000
191260.750,307705.469,441397.625,711170.313,195700.000,210902.313,228167.250,194135.547,-0.042,1.020,0.082,3.357,0.732,-4.547,73.333,21308.000,1.000
191494.641,308319.438,441931.813,711214.313,196720.313,211180.000,228822.688,194340.828,-0.055,1.019,0.083,3.479,0.580,-4.700,73.333,21309.000,1.000
191485.172,308637.906,442107.156,711220.500,197301.266,211246.438,229080.797,194329.203,-0.066,1.016,0.083,3.662,0.153,-4.761,73.333,21310.000,1.000
191301.703,308295.656,441749.000,711189.250,196736.484,211051.078,228657.906,194152.625,-0.075,1.015,0.082,3.906,-0.488,-4.822,73.333,21311.000,1.000
191143.453,307698.063,441283.906,711152.188,195728.953,210818.719,228072.203,194006.531,-0.083,1.013,0.079,4.333,-1.312,-5.035,73.333,21312.000,1.000
191249.406,307649.688,441353.375,711168.438,195665.578,210891.844,228142.203,194116.234,-0.087,1.010,0.075,4.700,-2.258,-5.249,73.333,21313.000,1.000
191479.891,308253.719,441886.938,711212.625,196686.063,211172.313,228798.281,194321.250,-0.085,1.007,0.076,5.035,-3.082,-5.371,73.333,21314.000,1.000
191480.250,308577.375,442069.344,711216.438,197271.406,211239.641,229062.563,194314.813,-0.082,1.005,0.071,5.341,-3.967,-5.493,73.333,21315.000,1.000
191294.109,308245.406,441712.500,711184.625,196706.359,211041.516,228642.438,194141.813,-0.079,1.000,0.066,5.890,-4.791,-5.524,73.333,21316.000,1.000
191145.250,307668.469,441263.156,711151.875,195708.578,210821.484,228071.313,194013.234,-0.076,0.998,0.061,6.226,-5.219,-5.646,73.333,21317.000,1.000
191236.078,307604.094,441325.469,711165.875,195626.859,210885.047,228132.906,194115.797,-0.071,0.991,0.058,6.744,-6.042,-5.676,73.333,21318.000,1.000
191466.297,308207.250,441861.813,711208.250,196645.109,211166.234,228792.375,194320.797,-0.065,0.984,0.055,7.416,-6.744,-5.554,73.333,21319.000,1.000
191463.359,308542.875,442051.281,711216.000,197245.750,211240.172,229066.859,194314.359,-0.063,0.979,0.048,8.148,-7.263,-5.219,73.333,21320.000,1.000
191273.281,308202.844,441688.719,711184.500,196681.406,211037.313,228644.766,194133.047,-0.059,0.975,0.040,9.033,-7.751,-4.944,73.333,21321.000,1.000
191125.578,307617.500,441234.469,711152.875,195679.344,210816.656,228073.547,194005.016,-0.056,0.971,0.032,9.979,-8.209,-4.547,73.333,21322.000,1.000
191228.031,307562.531,441300.719,711167.563,195598.422,210882.109,228135.953,194112.844,-0.053,0.967,0.028,10.956,-8.423,-4.333,73.333,21323.000,1.000
191457.547,308168.250,441838.406,711212.813,196621.422,211158.641,228791.578,194314.000,-0.053,0.962,0.025,11.871,-8.728,-4.181,73.333,21324.000,1.000
191456.828,308505.406,442031.063,711219.313,197230.641,211232.672,229067.031,194312.484,-0.053,0.958,0.023,12.756,-9.033,-3.937,73.333,21325.000,1.000
191258.172,308169.875,441670.500,711185.688,196673.547,211031.766,228645.219,194134.297,-0.053,0.950,0.017,13.763,-9.430,-3.754,73.333,21326.000,1.000
191105.906,307584.156,441214.875,711152.813,195675.047,210814.156,228071.219,194005.906,-0.055,0.945,0.013,14.771,-9.674,-3.632,73.333,21327.000,1.000
191208.906,307528.813,441275.656,711165.313,195593.328,210880.766,228128.797,194107.750,-0.055,0.939,0.007,15.503,-9.949,-3.632,73.333,21328.000,1.000
191443.234,308140.625,441816.656,711208.250,196620.609,211158.641,228787.188,194311.234,-0.057,0.935,0.005,16.357,-10.223,-3.601,73.333,21329.000,1.000
191439.125,308469.656,442009.875,711215.750,197229.484,211227.391,229062.125,194305.250,-0.059,0.932,0.004,17.273,-10.468,-3.632,73.333,21330.000,1.000
191248.156,308130.688,441652.969,711185.250,196680.703,211032.484,228648.172,194131.969,-0.064,0.930,0.000,17.883,-10.803,-3.815,73.333,21331.000,1.000
191093.656,307525.969,441194.500,711152.438,195682.297,210812.719,228074.344,194004.922,-0.069,0.935,-0.004,18.646,-11.139,-4.120,73.333,21332.000,1.000
191194.781,307440.844,441254.938,711165.063,195587.422,210872.094,228122.891,194106.844,-0.072,0.947,-0.008,19.287,-11.444,-4.425,73.333,21333.000,1.000
191431.438,308034.844,441806.219,711207.688,196606.844,211151.938,228777.172,194311.141,-0.075,0.963,-0.011,19.714,-11.871,-4.761,73.333,21334.000,1.000
191431.609,308346.969,442014.719,711216.563,197225.813,211233.297,229056.750,194304.625,-0.076,0.980,-0.012,19.836,-12.268,-5.035,73.333,21335.000,1.000
191241.891,307974.781,441662.094,711185.438,196679.094,211047.328,228637.609,194126.875,-0.076,0.997,-0.014,19.775,-12.573,-5.371,73.333,21336.000,1.000
191089.547,307337.313,441198.063,711153.688,195682.641,210840.266,228060.313,193997.594,-0.073,1.014,-0.014,19.226,-13.092,-5.707,73.333,21337.000,1.000
191187.078,307192.188,441229.281,711164.063,195581.344,210911.609,228101.531,194094.594,-0.071,1.026,-0.012,18.402,-13.397,-5.890,73.333,21338.000,1.000
191435.813,307725.594,441771.156,711207.750,196607.203,211215.766,228762.969,194303.016,-0.063,1.034,-0.010,17.334,-13.611,-5.951,73.333,21339.000,1.000
191442.156,307971.563,441985.844,711217.063,197240.656,211319.391,229055.234,194303.984,-0.056,1.040,-0.009,16.205,-13.733,-5.829,73.333,21340.000,1.000
191247.969,307536.875,441640.813,711185.250,196705.547,211148.453,228649.328,194135.453,-0.050,1.042,-0.008,14.923,-13.824,-5.676,73.333,21341.000,1.000
191099.375,306876.156,441184.031,711154.563,195717.609,210954.250,228081.234,194016.547,-0.044,1.042,-0.007,13.580,-13.672,-5.341,73.333,21342.000,1.000
191193.609,306739.188,441243.844,711167.750,195612.375,211019.516,228119.234,194106.672,-0.042,1.040,0.000,12.299,-13.397,-5.035,73.333,21343.000,1.000
191421.688,307285.000,441795.656,711209.500,196614.453,211289.172,228756.344,194294.688,-0.040,1.035,-0.001,10.895,-13.153,-4.700,73.333,21344.000,1.000
191429.469,307600.969,442017.938,711221.000,197253.531,211369.375,229049.422,194296.297,-0.041,1.024,0.000,9.155,-12.665,-4.395,73.333,21345.000,1.000
191232.594,307234.844,441650.188,711187.813,196715.563,211159.719,228636.719,194120.703,-0.042,1.018,0.002,8.057,-12.299,-4.272,73.333,21346.000,1.000
191081.578,306648.063,441179.281,711154.875,195712.953,210921.531,228059.234,193990.625,-0.046,1.013,0.005,7.172,-12.024,-4.272,73.333,21347.000,1.000
191179.938,306603.000,441225.156,711166.625,195600.125,210962.563,228103.500,194094.422,-0.049,1.008,0.007,6.409,-11.658,-4.395,73.333,21348.000,1.000
191419.188,307245.563,441759.094,711209.375,196600.859,211220.781,228756.078,194300.859,-0.051,1.005,0.008,5.646,-11.383,-4.486,73.333,21349.000,1.000
191433.313,307646.844,441971.875,711220.375,197237.969,211294.000,229058.984,194308.734,-0.056,0.999,0.011,5.096,-11.017,-4.700,73.333,21350.000,1.000
191242.250,307344.000,441621.125,711190.438,196711.906,211098.016,228658.531,194140.016,-0.056,0.998,0.013,4.486,-10.925,-4.852,73.333,21351.000,1.000
191081.234,306748.844,441149.156,711155.188,195704.547,210867.172,228072.469,194002.250,-0.058,0.996,0.015,4.059,-10.620,-4.974,73.333,21352.000,1.000
191186.016,306677.844,441199.063,711168.000,195590.469,210922.516,228111.453,194102.109,-0.059,0.998,0.014,3.479,-10.437,-5.249,73.333,21353.000,1.000
191436.266,307294.563,441748.531,711210.125,196601.297,211200.656,228767.797,194312.578,-0.060,1.002,0.022,2.960,-10.101,-5.371,73.333,21354.000,1.000
191448.250,307665.594,441965.531,711220.375,197244.141,211276.203,229066.234,194315.438,-0.062,1.006,0.027,2.380,-9.979,-5.554,73.333,21355.000,1.000
191248.516,307344.906,441604.594,711189.063,196717.984,211067.984,228653.172,194134.031,-0.065,1.007,0.031,1.770,-9.827,-5.737,73.333,21356.000,1.000
191087.672,306762.156,441132.813,711155.500,195718.328,210832.656,228066.578,193997.422,-0.072,1.009,0.036,1.099,-9.674,-5.829,73.333,21357.000,1.000
191178.328,306691.531,441168.750,711165.688,195593.859,210874.953,228095.453,194089.500,-0.078,1.013,0.039,0.580,-9.613,-5.859,73.333,21358.000,1.000
191414.625,307305.656,441707.313,711209.313,196594.234,211148.531,228742.219,194290.406,-0.081,1.015,0.041,-0.092,-9.613,-5.981,73.333,21359.000,1.000
191427.953,307682.250,441926.469,711221.250,197243.328,211239.547,229045.047,194301.750,-0.084,1.017,0.044,-0.641,-9.705,-6.042,73.333,21360.000,1.000
191242.609,307374.844,441578.031,711191.875,196731.125,211053.313,228649.953,194135.109,-0.088,1.020,0.048,-1.404,-9.796,-5.981,73.333,21361.000,1.000
191086.859,306791.125,441107.938,711158.875,195732.266,210832.484,228074.000,194004.750,-0.087,1.021,0.052,-1.923,-9.918,-6.042,73.333,21362.000,1.000
191183.953,306716.656,441148.625,711170.938,195602.891,210881.484,228104.844,194099.703,-0.087,1.018,0.052,-2.502,-9.979,-6.012,73.333,21363.000,1.000
191431.172,307334.188,441688.469,711213.563,196599.156,211156.766,228752.953,194301.406,-0.084,1.015,0.050,-3.143,-10.132,-5.859,73.333,21364.000,1.000
191448.688,307719.875,441911.094,711223.000,197246.906,211245.906,229060.234,194314.359,-0.082,1.008,0.052,-3.571,-10.254,-5.798,73.333,21365.000,1.000
191248.781,307413.219,441558.188,711191.063,196728.078,211051.172,228659.422,194138.672,-0.078,1.000,0.047,-3.876,-10.254,-5.585,73.333,21366.000,1.000
191088.469,306834.469,441088.281,711155.750,195719.484,210825.688,228078.188,194007.156,-0.074,0.993,0.047,-4.028,-10.101,-5.280,73.333,21367.000,1.000
191174.750,306763.656,441120.563,711164.938,195575.188,210871.641,228103.047,194102.563,-0.067,0.990,0.047,-3.906,-9.979,-4.974,73.333,21368.000,1.000
191408.547,307381.469,441653.250,711209.125,196562.594,211139.781,228747.938,194305.688,-0.063,0.992,0.043,-3.662,-9.674,-4.669,73.333,21369.000,1.000
191426.078,307772.094,441875.313,711221.250,197214.813,211225.969,229060.234,194320.797,-0.059,0.994,0.044,-3.418,-9.308,-4.211,73.333,21370.000,1.000
191243.688,307481.875,441533.969,711191.313,196711.984,211030.969,228670.516,194151.016,-0.056,0.996,0.046,-3.052,-8.942,-3.754,73.333,21371.000,1.000
191082.391,306906.281,441057.063,711156.188,195708.047,210792.422,228083.563,194008.859,-0.057,0.999,0.046,-2.716,-8.484,-3.204,73.333,21372.000,1.000
191169.203,306825.000,441078.000,711165.313,195563.563,210827.750,228096.703,194098.359,-0.056,1.000,0.045,-2.441,-7.904,-2.869,73.333,21373.000,1.000
191406.766,307432.063,441608.188,711207.125,196552.406,211093.734,228738.281,194300.422,-0.058,1.005,0.042,-2.258,-7.416,-2.502,73.333,21374.000,1.000
191426.422,307828.156,441833.125,711219.063,197212.766,211181.266,229053.984,194313.375,-0.058,1.009,0.042,-1.953,-6.989,-2.258,73.333,21375.000,1.000
191232.422,307533.094,441480.406,711188.563,196712.703,210985.641,228660.063,194137.156,-0.061,1.016,0.044,-1.740,-6.592,-2.045,73.333,21376.000,1.000
191069.344,306949.719,441002.344,711154.688,195713.047,210757.203,228073.719,193995.266,-0.058,1.022,0.041,-1.678,-6.134,-1.892,73.333,21377.000,1.000
191162.047,306865.250,441034.438,711168.063,195578.125,210816.656,228097.500,194093.625,-0.058,1.025,0.048,-1.648,-5.768,-1.648,73.333,21378.000,1.000
191410.953,307475.000,441573.406,711210.438,196577.516,211100.250,228743.828,194303.094,-0.056,1.028,0.047,-1.526,-5.219,-1.556,73.333,21379.000,1.000
191433.938,307859.344,441804.438,711221.375,197239.844,211196.094,229054.250,194315.344,-0.056,1.026,0.047,-1.434,-4.791,-1.404,73.333,21380.000,1.000
191249.219,307553.594,441466.469,711191.625,196742.297,211015.141,228664.172,194147.625,-0.052,1.027,0.044,-1.312,-4.272,-1.221,73.333,21381.000,1.000
191091.875,306961.344,440994.938,711155.313,195737.906,210790.453,228078.016,194009.391,-0.052,1.025,0.048,-1.343,-3.784,-1.129,73.333,21382.000,1.000
191167.859,306859.594,441014.500,711166.125,195582.156,210835.875,228092.328,194098.453,-0.048,1.024,0.049,-1.373,-3.326,-1.038,73.333,21383.000,1.000
191412.219,307473.375,441556.219,711210.125,196570.188,211114.734,228740.797,194308.547,-0.045,1.017,0.049,-1.190,-2.808,-0.977,73.333,21384.000,1.000
191442.156,307879.750,441795.844,711223.625,197243.250,211219.797,229068.563,194330.719,-0.044,1.014,0.047,-1.007,-2.258,-0.854,73.333,21385.000,1.000
191240.641,307564.406,441440.188,711189.000,196731.391,211022.734,228668.109,194152.531,-0.042,1.012,0.045,-0.793,-1.831,-0.793,73.333,21386.000,1.000
191067.453,306958.938,440958.188,711152.250,195715.734,210789.391,228072.469,194009.125,-0.039,1.009,0.049,-0.702,-1.221,-0.763,73.333,21387.000,1.000
191155.531,306866.406,440984.219,711165.375,195561.141,210836.063,228085.531,194098.797,-0.036,1.009,0.048,-0.427,-0.580,-0.732,73.333,21388.000,1.000
191403.188,307471.500,441521.719,711210.000,196548.641,211115.016,228730.781,194306.406,-0.037,1.007,0.049,-0.275,-0.092,-0.702,73.333,21389.000,1.000
191417.047,307854.063,441751.125,711219.375,197213.828,211207.281,229047.359,194319.906,-0.034,1.004,0.050,-0.092,0.549,-0.610,73.333,21390.000,1.000
191222.766,307542.688,441401.375,711185.500,196709.672,211014.328,228653.344,194144.047,-0.032,1.000,0.048,0.031,1.038,-0.519,73.333,21391.000,1.000
191070.406,306961.344,440933.781,711153.438,195708.844,210791.797,228068.813,194009.484,-0.034,1.000,0.049,0.275,1.587,-0.458,73.333,21392.000,1.000
191168.938,306882.219,440968.813,711166.313,195564.719,210846.078,228088.125,194106.844,-0.036,0.998,0.047,0.580,2.075,-0.427,73.333,21393.000,1.000
191406.484,307480.719,441498.750,711208.063,196544.703,211114.734,228719.422,194304.266,-0.041,0.999,0.049,0.793,2.563,-0.549,73.333,21394.000,1.000
191426.969,307868.375,441731.906,711219.688,197217.859,211207.000,229036.094,194313.922,-0.045,0.999,0.051,1.007,3.052,-0.732,73.333,21395.000,1.000
191246.813,307576.469,441399.063,711191.250,196735.422,211024.438,228654.156,194147.797,-0.053,1.001,0.050,1.160,3.296,-0.916,73.333,21396.000,1.000
191082.031,306981.375,440923.219,711156.750,195727.891,210792.422,228061.391,194003.500,-0.060,1.002,0.053,1.251,3.418,-1.129,73.333,21397.000,1.000
191150.875,306859.344,440931.625,711163.438,195548.625,210820.406,228054.859,194079.578,-0.066,1.003,0.053,1.373,3.387,-1.404,73.333,21398.000,1.000
191397.188,307451.313,441469.063,711205.813,196530.047,211098.016,228696.531,194286.734,-0.073,1.001,0.052,1.465,3.204,-1.709,73.333,21399.000,1.000
191430.094,307850.406,441718.063,711221.563,197217.141,211205.844,229029.031,194313.641,-0.078,1.002,0.051,1.495,2.960,-2.075,73.333,21400.000,1.000
191231.797,307548.313,441374.094,711190.000,196722.891,211014.609,228639.484,194137.344,-0.083,0.999,0.051,1.648,2.686,-2.411,73.333,21401.000,1.000
191069.688,306956.781,440900.156,711156.250,195713.141,210783.578,228051.375,194000.984,-0.085,1.000,0.053,1.678,2.197,-2.594,73.333,21402.000,1.000
191156.422,306853.344,440917.063,711166.938,195542.281,210826.484,228058.531,194091.563,-0.087,1.000,0.052,1.770,1.709,-2.930,73.333,21403.000,1.000
191401.844,307452.188,441453.156,711210.375,196524.141,211105.797,228703.859,194297.828,-0.090,0.998,0.051,1.892,1.251,-3.326,73.333,21404.000,1.000
191415.781,307826.906,441685.063,711220.313,197194.078,211195.922,229021.438,194307.031,-0.094,0.994,0.051,2.045,0.763,-3.540,73.333,21405.000,1.000
191226.422,307527.031,441344.875,711188.188,196704.031,211009.500,228634.031,194137.781,-0.094,0.991,0.050,2.075,0.031,-3.693,73.333,21406.000,1.000
191068.359,306939.438,440874.156,711154.375,195699.719,210786.703,228052.719,194002.688,-0.096,0.989,0.049,2.258,-0.488,-3.906,73.333,21407.000,1.000
191148.906,306827.063,440885.594,711162.563,195522.438,210824.875,228052.719,194090.125,-0.095,0.989,0.047,2.472,-1.160,-4.059,73.333,21408.000,1.000
191395.141,307424.656,441419.781,711205.250,196501.531,211100.609,228692.234,194297.281,-0.094,0.986,0.045,2.533,-1.709,-4.150,73.333,21409.000,1.000
191417.047,307820.813,441661.000,711218.125,197187.906,211200.219,229021.969,194313.922,-0.089,0.984,0.041,2.747,-2.197,-4.211,73.333,21410.000,1.000
191231.797,307530.250,441329.938,711188.188,196712.891,211020.141,228645.484,194144.672,-0.085,0.984,0.039,3.021,-2.808,-4.242,73.333,21411.000,1.000
191068.359,306937.125,440855.906,711152.375,195709.109,210790.906,228055.578,194003.047,-0.083,0.983,0.038,3.387,-3.143,-4.028,73.333,21412.000,1.000
191150.781,306818.656,440867.531,711162.688,195527.969,210828.641,228052.984,194089.953,-0.081,0.984,0.040,3.693,-3.510,-3.845,73.333,21413.000,1.000
191398.094,307416.625,441405.125,711209.813,196507.422,211103.656,228697.516,194297.203,-0.083,0.986,0.035,3.784,-3.754,-3.815,73.333,21414.000,1.000
191420.344,307813.406,441644.125,711219.500,197192.375,211197.266,229023.219,194306.672,-0.082,0.990,0.032,3.845,-4.028,-3.723,73.333,21415.000,1.000
191234.203,307528.563,441313.219,711189.000,196719.328,211011.031,228641.734,194138.234,-0.078,0.993,0.032,4.028,-4.333,-3.540,73.333,21416.000,1.000
191072.469,306930.594,440839.281,711155.750,195712.422,210782.141,228051.188,193998.313,-0.077,0.996,0.030,4.028,-4.547,-3.540,73.333,21417.000,1.000
191152.672,306809.344,440850.281,711164.688,195528.688,210820.406,228047.531,194084.313,-0.071,1.000,0.028,4.150,-4.700,-3.448,73.333,21418.000,1.000
191394.328,307403.813,441386.188,711208.375,196503.500,211095.609,228685.266,194287.719,-0.066,1.000,0.026,4.242,-4.700,-3.326,73.333,21419.000,1.000
191414.625,307807.594,441628.375,711219.250,197196.219,211195.828,229016.797,194305.156,-0.064,1.005,0.024,4.089,-4.730,-3.265,73.333,21420.000,1.000
191219.547,307509.156,441289.625,711187.750,196721.203,211007.000,228636.813,194132.953,-0.062,1.005,0.025,3.998,-4.761,-3.052,73.333,21421.000,1.000
191055.563,306913.781,440812.719,711151.563,195713.766,210775.078,228045.563,193992.234,-0.061,1.005,0.022,3.906,-4.669,-2.991,73.333,21422.000,1.000
191132.719,306789.406,440813.344,711158.688,195519.656,210808.438,228034.203,194077.438,-0.063,1.005,0.025,3.815,-4.517,-2.899,73.333,21423.000,1.000
191384.859,307391.750,441352.469,711205.125,196497.234,211091.141,228681.328,194292.641,-0.064,1.004,0.026,3.662,-4.303,-2.808,73.333,21424.000,1.000
191414.359,307803.906,441606.375,711219.063,197199.797,211196.641,229024.484,194313.922,-0.066,1.005,0.024,3.357,-4.242,-2.808,73.333,21425.000,1.000
191228.578,307520.063,441278.969,711188.813,196736.844,211017.375,228653.078,194145.734,-0.067,1.006,0.024,3.235,-4.150,-2.930,73.333,21426.000,1.000
191070.313,306930.594,440804.500,711156.438,195732.984,210789.828,228063.172,194003.672,-0.066,1.005,0.021,3.143,-4.120,-3.021,73.333,21427.000,1.000
191152.938,306812.406,440811.125,711166.188,195541.297,210828.734,228054.594,194090.406,-0.065,1.005,0.024,2.930,-4.059,-3.174,73.333,21428.000,1.000
191397.906,307404.281,441341.750,711210.250,196507.969,211101.328,228689.016,194294.250,-0.064,1.006,0.025,2.747,-3.906,-3.265,73.333,21429.000,1.000
191419.281,307801.250,441584.125,711221.188,197203.547,211199.500,229021.531,194310.703,-0.064,1.006,0.023,2.655,-3.845,-3.387,73.333,21430.000,1.000
191232.859,307516.563,441252.781,711191.063,196743.109,211018.000,228649.500,194146.281,-0.066,1.008,0.023,2.441,-3.662,-3.601,73.333,21431.000,1.000
191062.547,306919.500,440768.281,711155.938,195733.516,210781.609,228052.719,193993.125,-0.068,1.007,0.025,2.319,-3.601,-3.662,73.333,21432.000,1.000
191143.906,306790.844,440772.031,711165.563,195533.703,210818.797,228038.672,194077.703,-0.072,1.008,0.025,2.106,-3.601,-3.784,73.333,21433.000,1.000
191397.641,307384.594,441305.438,711209.313,196498.484,211094.266,228676.063,194288.875,-0.072,1.006,0.026,1.862,-3.662,-3.876,73.333,21434.000,1.000
191420.344,307783.000,441556.125,711221.125,197200.234,211194.141,229016.703,194304.891,-0.073,1.007,0.028,1.617,-3.662,-3.967,73.333,21435.000,1.000
191226.781,307500.906,441222.375,711189.438,196737.734,211006.297,228639.047,194129.016,-0.073,1.004,0.026,1.495,-3.632,-4.028,73.333,21436.000,1.000
191070.594,306921.656,440751.031,711156.625,195741.031,210784.203,228055.313,193997.500,-0.073,1.007,0.024,1.312,-3.723,-4.028,73.333,21437.000,1.000
191144.891,306801.938,440753.906,711167.563,195540.313,210823.266,228041.813,194082.531,-0.072,1.005,0.026,1.190,-3.754,-4.028,73.333,21438.000,1.000
191383.156,307384.250,441277.000,711209.813,196492.766,211091.219,228669.000,194282.984,-0.071,1.005,0.022,0.977,-3.754,-4.059,73.333,21439.000,1.000
191407.469,307796.500,441527.344,711220.750,197196.750,211192.531,229009.453,194300.500,-0.072,1.004,0.023,0.793,-3.723,-3.876,73.333,21440.000,1.000
191212.828,307509.938,441198.688,711189.813,196739.891,211009.328,228637.250,194130.188,-0.072,1.003,0.027,0.671,-3.815,-3.815,73.333,21441.000,1.000
191052.078,306913.063,440721.000,711155.938,195733.703,210781.703,228046.094,193992.938,-0.074,1.001,0.028,0.519,-3.845,-3.571,73.333,21442.000,1.000
191126.109,306787.813,440714.375,711164.938,195520.281,210807.625,228020.609,194071.172,-0.075,0.998,0.028,0.366,-3.815,-3.448,73.333,21443.000,1.000
191368.219,307371.000,441241.438,711206.688,196471.484,211077.016,228651.109,194274.391,-0.077,0.997,0.027,0.275,-3.876,-3.418,73.333,21444.000,1.000
191401.313,307785.250,441500.094,711219.688,197187.016,211185.906,229004.453,194301.047,-0.078,0.997,0.029,0.244,-3.845,-3.326,73.333,21445.000,1.000
191218.922,307512.281,441177.781,711189.813,196743.641,211007.453,228643.969,194134.922,-0.078,0.998,0.032,0.122,-3.876,-3.265,73.333,21446.000,1.000
191054.234,306926.219,440699.813,711156.125,195737.094,210778.125,228052.453,193992.500,-0.078,1.000,0.033,-0.092,-3.998,-3.143,73.333,21447.000,1.000
191117.266,306782.969,440686.031,711163.500,195514.203,210802.531,228020.969,194066.531,-0.078,1.002,0.032,-0.244,-3.937,-3.021,73.333,21448.000,1.000
191357.672,307353.406,441208.094,711205.563,196462.359,211070.297,228646.641,194271.984,-0.076,1.002,0.032,-0.366,-3.906,-2.960,73.333,21449.000,1.000
191396.922,307778.719,441475.219,711221.438,197183.875,211180.719,229003.641,194301.484,-0.075,1.001,0.032,-0.458,-3.998,-2.869,73.333,21450.000,1.000
191210.875,307511.375,441157.375,711192.500,196745.344,211003.250,228645.297,194133.141,-0.074,1.002,0.033,-0.610,-3.876,-2.747,73.333,21451.000,1.000
191044.750,306917.531,440676.719,711159.125,195740.313,210773.922,228051.734,193989.813,-0.074,1.004,0.035,-0.763,-3.754,-2.625,73.333,21452.000,1.000
191120.203,306775.281,440667.875,711167.000,195521.359,210803.688,228026.078,194075.109,-0.074,1.005,0.035,-0.977,-3.784,-2.502,73.333,21453.000,1.000
191363.938,307357.594,441189.125,711208.563,196468.797,211070.750,228649.422,194277.531,-0.071,1.004,0.033,-1.007,-3.632,-2.533,73.333,21454.000,1.000
191395.219,307781.031,441451.000,711222.063,197189.953,211178.047,229002.656,194300.141,-0.067,1.007,0.034,-1.221,-3.448,-2.502,73.333,21455.000,1.000
191210.516,307513.156,441133.344,711193.625,196756.063,210998.875,228643.516,194133.500,-0.062,1.010,0.036,-1.404,-3.387,-2.411,73.333,21456.000,1.000
191047.609,306925.125,440654.031,711159.500,195751.766,210768.563,228050.031,193992.500,-0.059,1.014,0.033,-1.617,-3.021,-2.258,73.333,21457.000,1.000
191116.719,306777.969,440635.688,711163.938,195518.672,210792.344,228015.078,194069.828,-0.056,1.013,0.035,-1.892,-2.716,-2.075,73.333,21458.000,1.000
191362.234,307357.063,441157.563,711206.063,196461.734,211063.594,228640.391,194272.250,-0.055,1.012,0.036,-2.136,-2.197,-1.831,73.333,21459.000,1.000
191399.156,307780.313,441428.031,711222.250,197188.969,211179.828,229000.250,194303.094,-0.052,1.014,0.036,-2.533,-1.862,-1.709,73.333,21460.000,1.000
191216.141,307521.469,441117.344,711193.375,196761.172,211007.453,228646.828,194139.031,-0.051,1.011,0.037,-2.747,-1.373,-1.648,73.333,21461.000,1.000
191041.359,306925.594,440634.344,711158.625,195752.750,210771.688,228049.313,193988.750,-0.053,1.010,0.040,-2.930,-0.824,-1.434,73.333,21462.000,1.000
191101.609,306766.813,440605.281,711160.688,195502.766,210781.875,228000.594,194057.500,-0.050,1.008,0.037,-3.204,-0.366,-1.312,73.333,21463.000,1.000
191351.422,307350.438,441129.406,711204.000,196446.625,211053.938,228627.594,194267.156,-0.049,1.006,0.038,-3.265,0.122,-1.282,73.333,21464.000,1.000
191391.828,307780.063,441401.094,711221.375,197180.750,211174.016,228994.344,194301.938,-0.051,1.003,0.041,-3.387,0.610,-1.251,73.333,21465.000,1.000
191203.813,307521.031,441084.688,711192.750,196751.953,210998.250,228640.922,194133.672,-0.052,1.001,0.040,-3.448,1.068,-1.190,73.333,21466.000,1.000
191035.813,306929.156,440600.750,711155.938,195744.781,210762.828,228042.609,193983.297,-0.053,0.999,0.042,-3.540,1.465,-1.129,73.333,21467.000,1.000
191109.922,306793.250,440585.344,711164.063,195511.797,210791.625,228004.875,194060.453,-0.055,0.997,0.043,-3.357,1.953,-1.068,73.333,21468.000,1.000
191355.891,307374.594,441107.219,711208.250,196449.141,211061.547,228626.078,194264.922,-0.057,0.994,0.040,-3.235,2.411,-1.038,73.333,21469.000,1.000
191390.938,307795.531,441371.688,711224.125,197174.938,211173.563,228985.406,194293.625,-0.059,0.994,0.042,-3.235,2.686,-0.916,73.333,21470.000,1.000
191211.672,307538.906,441061.094,711196.250,196754.188,211003.078,228639.047,194135.016,-0.059,0.991,0.038,-3.082,3.082,-1.007,73.333,21471.000,1.000
191042.063,306942.469,440582.219,711161.563,195750.156,210767.938,228042.969,193989.281,-0.057,0.993,0.041,-2.960,3.387,-0.885,73.333,21472.000,1.000
191105.375,306778.875,440557.906,711166.750,195502.766,210788.047,227995.047,194061.609,-0.058,0.991,0.040,-2.808,3.693,-0.824,73.333,21473.000,1.000
191349.000,307355.094,441076.031,711207.000,196433.484,211051.891,228613.203,194262.953,-0.060,0.989,0.040,-2.655,3.998,-0.641,73.333,21474.000,1.000
191391.016,307783.906,441349.250,711222.375,197168.594,211167.844,228981.031,194297.109,-0.062,0.987,0.038,-2.411,4.395,-0.580,73.333,21475.000,1.000
191210.328,307532.656,441042.688,711195.188,196750.969,210995.828,228636.547,194129.922,-0.064,0.986,0.038,-2.289,4.456,-0.458,73.333,21476.000,1.000
191040.094,306940.438,440561.219,711160.125,195745.328,210761.578,228039.219,193982.484,-0.067,0.985,0.039,-2.014,4.730,-0.336,73.333,21477.000,1.000
191107.250,306779.594,440537.344,711168.063,195499.359,210785.813,227992.359,194054.906,-0.068,0.984,0.042,-1.862,4.822,-0.244,73.333,21478.000,1.000
191359.375,307360.281,441059.750,711211.188,196432.141,211058.234,228613.922,194264.109,-0.069,0.984,0.042,-1.587,4.974,-0.061,73.333,21479.000,1.000
191397.813,307790.156,441334.844,711227.250,197171.719,211175.891,228984.609,194302.109,-0.072,0.985,0.043,-1.465,5.035,-0.092,73.333,21480.000,1.000
191211.672,307529.625,441024.156,711198.813,196752.313,210999.938,228636.813,194132.422,-0.074,0.985,0.042,-1.373,5.127,0.000,73.333,21481.000,1.000
191042.609,306936.063,440542.094,711162.688,195743.000,210764.359,228038.938,193982.656,-0.071,0.984,0.041,-1.190,5.035,-0.122,73.333,21482.000,1.000
191109.656,306789.156,440519.813,711168.688,195494.000,210785.984,227992.359,194057.406,-0.073,0.988,0.040,-1.160,5.066,-0.092,73.333,21483.000,1.000
191342.922,307352.406,441034.188,711209.375,196423.031,211054.484,228610.078,194260.625,-0.070,0.990,0.041,-0.946,5.035,-0.031,73.333,21484.000,1.000
191374.578,307769.219,441301.781,711223.688,197160.094,211167.047,228976.016,194289.063,-0.067,0.993,0.041,-0.824,4.974,-0.031,73.333,21485.000,1.000
191199.609,307517.906,440996.000,711194.625,196749.984,210994.313,228632.156,194125.719,-0.066,0.993,0.035,-0.824,5.035,0.092,73.333,21486.000,1.000
191038.844,306936.406,440523.031,711159.750,195752.563,210764.891,228040.734,193982.656,-0.064,0.991,0.034,-0.793,5.035,0.153,73.333,21487.000,1.000
191099.016,306772.781,440491.125,711165.750,195492.844,210780.891,227988.344,194056.156,-0.062,0.993,0.034,-0.763,5.066,0.366,73.333,21488.000,1.000
191338.547,307333.813,441000.656,711208.125,196414.719,211046.344,228601.844,194258.656,-0.063,0.993,0.036,-0.702,5.127,0.488,73.333,21489.000,1.000
191373.672,307757.688,441271.188,711221.875,197152.500,211159.172,228967.172,194288.078,-0.064,0.994,0.037,-0.610,5.310,0.641,73.333,21490.000,1.000
191199.063,307511.813,440971.344,711195.188,196748.734,210993.953,228629.828,194128.391,-0.066,0.997,0.035,-0.519,5.310,0.854,73.333,21491.000,1.000
191032.594,306922.188,440496.844,711162.688,195750.234,210767.391,228041.266,193985.344,-0.064,0.996,0.038,-0.580,5.371,0.946,73.333,21492.000,1.000
191089.188,306753.563,440459.750,711167.875,195483.531,210779.828,227985.297,194052.766,-0.066,0.998,0.039,-0.549,5.524,1.099,73.333,21493.000,1.000
191340.594,307322.906,440976.594,711209.938,196411.578,211052.250,228607.219,194261.344,-0.067,1.001,0.036,-0.641,5.585,1.221,73.333,21494.000,1.000
191384.938,307758.875,441255.375,711227.063,197163.234,211174.641,228984.609,194296.391,-0.065,1.006,0.031,-0.702,5.615,1.282,73.333,21495.000,1.000
191206.672,307510.313,440951.750,711197.063,196759.203,211002.000,228640.828,194130.984,-0.064,1.010,0.031,-0.793,5.676,1.434,73.333,21496.000,1.000
191040.016,306920.219,440474.125,711159.063,195757.125,210768.734,228042.703,193983.734,-0.064,1.013,0.032,-1.007,5.737,1.587,73.333,21497.000,1.000
191091.875,306746.313,440433.000,711163.500,195483.719,210779.016,227977.609,194046.859,-0.063,1.016,0.034,-1.160,5.890,1.648,73.333,21498.000,1.000
191335.688,307310.656,440947.469,711205.813,196408.906,211050.188,228594.516,194256.250,-0.061,1.018,0.036,-1.373,5.951,1.648,73.333,21499.000,1.000
191386.641,307752.969,441236.500,711224.438,197172.703,211179.828,228983.438,194302.375,-0.062,1.021,0.038,-1.617,6.042,1.831,73.333,21500.000,1.000
191202.734,307510.656,440933.156,711194.750,196773.953,211009.063,228642.984,194132.859,-0.061,1.021,0.038,-1.984,6.195,1.801,73.333,21501.000,1.000
191035.266,306931.500,440452.688,711160.500,195772.953,210775.266,228042.797,193982.125,-0.064,1.021,0.038,-2.197,6.165,1.831,73.333,21502.000,1.000
191092.766,306763.313,440409.750,711168.063,195496.766,210788.219,227979.938,194050.344,-0.067,1.018,0.040,-2.350,6.226,1.862,73.333,21503.000,1.000
191339.344,307331.750,440924.219,711211.000,196413.109,211060.016,228598.188,194259.828,-0.069,1.017,0.038,-2.625,6.165,1.801,73.333,21504.000,1.000
191379.766,307766.188,441206.469,711227.563,197167.969,211183.578,228980.766,194295.234,-0.072,1.012,0.040,-2.686,6.073,1.587,73.333,21505.000,1.000
191203.625,307524.000,440909.719,711200.688,196775.016,211015.500,228647.891,194133.578,-0.076,1.010,0.041,-2.777,5.981,1.343,73.333,21506.000,1.000
191040.813,306949.000,440432.844,711164.063,195773.484,210780.172,228050.391,193985.875,-0.079,1.008,0.040,-2.869,5.920,1.068,73.333,21507.000,1.000
191091.875,306771.531,440384.094,711167.813,195486.406,210786.891,227978.328,194049.094,-0.080,1.006,0.042,-2.899,5.737,0.580,73.333,21508.000,1.000
191342.203,307335.438,440897.656,711210.250,196397.547,211055.016,228593.359,194259.734,-0.081,1.006,0.044,-2.869,5.585,0.275,73.333,21509.000,1.000
191386.734,307776.563,441184.219,711227.438,197155.531,211176.078,228976.109,194294.688,-0.079,1.003,0.044,-2.869,5.341,-0.031,73.333,21510.000,1.000
191204.438,307538.469,440887.094,711197.875,196764.469,211007.094,228643.516,194128.844,-0.079,1.004,0.046,-2.808,5.066,-0.275,73.333,21511.000,1.000
191037.781,306954.813,440405.750,711162.188,195761.234,210772.484,228048.063,193980.609,-0.076,1.003,0.046,-2.838,4.913,-0.519,73.333,21512.000,1.000
191092.500,306779.313,440359.969,711170.063,195474.594,210783.750,227979.578,194047.484,-0.077,1.001,0.045,-2.869,4.700,-0.732,73.333,21513.000,1.000
191338.813,307339.531,440870.563,711212.813,196385.125,211054.656,228594.516,194258.578,-0.077,1.002,0.045,-2.869,4.578,-0.977,73.333,21514.000,1.000
191386.109,307776.219,441155.156,711227.563,197145.438,211177.859,228980.125,194299.078,-0.075,1.000,0.043,-2.777,4.486,-1.160,73.333,21515.000,1.000
191208.813,307536.594,440862.625,711198.688,196760.453,211010.578,228649.500,194136.797,-0.075,0.998,0.044,-2.686,4.425,-1.160,73.333,21516.000,1.000
191044.031,306955.625,440384.000,711163.250,195757.297,210778.219,228049.938,193986.781,-0.076,0.997,0.044,-2.533,4.395,-1.251,73.333,21517.000,1.000
191096.609,306777.344,440335.750,711166.750,195465.203,210787.328,227976.266,194046.047,-0.076,0.997,0.045,-2.502,4.333,-1.282,73.333,21518.000,1.000
191340.234,307332.750,440841.500,711209.500,196371.703,211055.281,228585.766,194252.406,-0.075,0.996,0.046,-2.441,4.181,-1.282,73.333,21519.000,1.000
191388.250,307773.688,441126.906,711226.938,197135.516,211180.547,228975.844,194294.250,-0.076,0.994,0.042,-2.258,4.150,-1.373,73.333,21520.000,1.000
191219.000,307541.406,440839.469,711199.563,196755.625,211016.297,228652.453,194140.109,-0.079,0.993,0.044,-2.106,4.150,-1.404,73.333,21521.000,1.000
191049.672,306954.375,440361.750,711164.563,195754.625,210782.328,228054.594,193989.547,-0.079,0.991,0.046,-1.984,4.181,-1.434,73.333,21522.000,1.000
191095.266,306767.594,440307.656,711168.500,195458.234,210788.844,227976.719,194051.781,-0.079,0.989,0.045,-1.953,3.998,-1.404,73.333,21523.000,1.000
191337.469,307311.906,440812.000,711209.563,196358.750,211054.391,228583.438,194255.266,-0.080,0.990,0.046,-1.678,3.967,-1.373,73.333,21524.000,1.000
191386.469,307756.344,441102.594,711225.813,197126.656,211176.969,228969.844,194294.688,-0.080,0.990,0.045,-1.587,3.815,-1.495,73.333,21525.000,1.000
191219.719,307530.781,440816.219,711198.688,196754.906,211014.250,228647.453,194138.406,-0.083,0.988,0.047,-1.373,3.662,-1.526,73.333,21526.000,1.000
191057.984,306953.219,440342.875,711165.750,195758.906,210781.516,228050.750,193991.609,-0.082,0.990,0.046,-1.221,3.540,-1.587,73.333,21527.000,1.000
191103.313,306764.938,440288.875,711171.375,195458.234,210785.453,227968.844,194051.156,-0.084,0.992,0.045,-1.129,3.387,-1.617,73.333,21528.000,1.000
191342.297,307313.063,440791.531,711211.625,196356.859,211051.531,228576.281,194255.266,-0.085,0.992,0.048,-1.068,3.265,-1.740,73.333,21529.000,1.000
191389.766,307751.781,441078.344,711229.063,197127.469,211176.516,228969.219,194298.625,-0.087,0.991,0.047,-0.916,3.052,-1.678,73.333,21530.000,1.000
191215.344,307519.063,440790.625,711201.938,196759.016,211012.641,228646.828,194139.938,-0.089,0.991,0.046,-0.732,2.869,-1.831,73.333,21531.000,1.000
191046.813,306934.969,440314.531,711166.000,195764.094,210779.281,228049.672,193990.172,-0.088,0.994,0.047,-0.671,2.686,-2.014,73.333,21532.000,1.000
191093.391,306737.906,440254.469,711170.750,195458.328,210776.781,227961.703,194044.719,-0.086,0.994,0.043,-0.580,2.655,-2.014,73.333,21533.000,1.000
191341.141,307289.906,440761.844,711213.563,196361.250,211043.031,228570.375,194250.797,-0.087,0.995,0.048,-0.519,2.472,-2.014,73.333,21534.000,1.000
191383.156,307740.875,441051.438,711230.500,197135.953,211166.859,228961.531,194285.844,-0.087,0.996,0.046,-0.397,2.319,-2.136,73.333,21535.000,1.000
191205.953,307512.375,440760.688,711201.063,196764.469,210995.922,228636.359,194120.000,-0.087,0.994,0.046,-0.580,2.075,-2.197,73.333,21536.000,1.000
191038.313,306928.969,440281.281,711164.938,195763.203,210758.188,228035.016,193968.719,-0.090,0.997,0.045,-0.549,1.984,-2.228,73.333,21537.000,1.000
191083.547,306728.813,440222.469,711170.563,195454.578,210759.172,227948.828,194030.141,-0.087,0.997,0.044,-0.488,1.862,-2.136,73.333,21538.000,1.000
191328.172,307275.781,440726.875,711212.938,196352.391,211026.672,228555.719,194238.641,-0.087,0.995,0.050,-0.549,1.801,-2.289,73.333,21539.000,1.000
191377.969,307724.969,441019.594,711228.438,197127.016,211150.859,228949.641,194277.172,-0.086,0.995,0.047,-0.549,1.648,-2.197,73.333,21540.000,1.000
191207.656,307497.781,440737.188,711201.250,196764.656,210987.875,228630.813,194120.266,-0.087,0.996,0.046,-0.641,1.526,-2.228,73.333,21541.000,1.000
191040.719,306913.531,440260.188,711166.750,195765.625,210752.281,228032.781,193971.484,-0.088,0.996,0.045,-0.641,1.434,-2.197,73.333,21542.000,1.000
191078.453,306716.906,440195.281,711170.938,195446.172,210750.938,227940.688,194028.625,-0.088,0.996,0.047,-0.641,1.404,-2.228,73.333,21543.000,1.000
191320.297,307261.313,440692.281,711212.625,196334.422,211015.313,228544.188,194233.000,-0.089,0.998,0.048,-0.671,1.251,-2.258,73.333,21544.000,1.000
191372.781,307711.844,440989.031,711228.875,197115.656,211147.828,228946.609,194279.313,-0.090,0.999,0.049,-0.824,1.160,-2.228,73.333,21545.000,1.000
191205.688,307492.875,440711.688,711202.500,196757.594,210988.938,228633.859,194126.344,-0.091,0.999,0.047,-0.793,0.977,-2.411,73.333,21546.000,1.000
191036.172,306910.313,440234.094,711168.438,195761.063,210754.422,228036.359,193976.578,-0.092,0.999,0.046,-0.885,0.885,-2.380,73.333,21547.000,1.000
191077.828,306707.156,440166.938,711169.875,195438.750,210751.125,227941.766,194030.938,-0.091,1.000,0.046,-1.007,0.732,-2.197,73.333,21548.000,1.000
191320.125,307251.906,440666.281,711213.063,196328.438,211016.578,228542.750,194234.609,-0.090,1.001,0.045,-1.068,0.580,-2.258,73.333,21549.000,1.000
191373.328,307701.563,440963.281,711230.750,197114.047,211147.469,228943.563,194279.141,-0.091,1.003,0.045,-1.129,0.549,-2.289,73.333,21550.000,1.000
191201.125,307477.938,440687.719,711204.000,196762.063,210988.500,228630.547,194124.109,-0.091,1.002,0.047,-1.251,0.488,-2.228,73.333,21551.000,1.000
191035.266,306898.688,440214.844,711168.000,195767.500,210753.625,228033.219,193977.125,-0.088,1.002,0.048,-1.434,0.397,-2.319,73.333,21552.000,1.000
191079.344,306691.688,440148.688,711171.375,195446.172,210752.828,227939.078,194035.953,-0.089,1.003,0.049,-1.617,0.366,-2.258,73.333,21553.000,1.000
191318.328,307226.969,440640.000,711214.125,196327.547,211014.250,228534.891,194235.422,-0.089,1.003,0.048,-1.770,0.305,-2.167,73.333,21554.000,1.000
191368.406,307674.719,440933.250,711231.813,197108.422,211143.531,228933.016,194277.438,-0.087,1.005,0.047,-1.984,0.244,-2.075,73.333,21555.000,1.000
191201.031,307460.594,440658.125,711205.625,196759.563,210988.313,228627.594,194123.219,-0.088,1.006,0.050,-2.014,0.275,-1.953,73.333,21556.000,1.000
191033.578,306876.875,440180.000,711168.438,195758.641,210753.359,228030.094,193974.172,-0.087,1.005,0.049,-2.167,0.305,-1.892,73.333,21557.000,1.000
191075.500,306669.000,440110.438,711171.375,195428.281,210749.953,227933.531,194032.281,-0.086,1.003,0.050,-2.167,0.244,-1.709,73.333,21558.000,1.000
191315.563,307209.469,440606.813,711213.750,196308.234,211013.359,228533.094,194237.563,-0.084,1.001,0.052,-2.258,0.275,-1.587,73.333,21559.000,1.000
191366.609,307664.094,440906.969,711232.813,197094.391,211144.953,228936.594,194282.719,-0.082,0.999,0.053,-2.411,0.275,-1.495,73.333,21560.000,1.000
191200.938,307458.438,440636.406,711204.938,196750.703,210985.375,228628.406,194124.734,-0.082,0.997,0.053,-2.563,0.275,-1.312,73.333,21561.000,1.000
191035.813,306883.938,440163.531,711170.750,195755.781,210746.656,228027.141,193970.500,-0.079,0.997,0.049,-2.625,0.397,-1.160,73.333,21562.000,1.000
191081.234,306683.281,440094.594,711175.313,195425.328,210742.813,227928.266,194028.703,-0.075,0.998,0.050,-2.686,0.580,-0.977,73.333,21563.000,1.000
191324.063,307221.000,440589.844,711216.438,196305.906,211011.469,228529.250,194236.484,-0.072,0.998,0.048,-2.716,0.885,-0.824,73.333,21564.000,1.000
191376.719,307674.094,440890.250,711232.438,197093.938,211146.922,228937.656,194283.609,-0.073,0.998,0.049,-2.686,1.099,-0.702,73.333,21565.000,1.000
191207.922,307460.063,440615.031,711205.438,196740.875,210986.266,228632.609,194124.828,-0.072,0.998,0.048,-2.686,1.282,-0.549,73.333,21566.000,1.000
191034.828,306873.000,440134.313,711171.375,195738.797,210744.688,228030.547,193967.203,-0.071,0.996,0.049,-2.686,1.465,-0.275,73.333,21567.000,1.000
191070.953,306660.063,440057.500,711174.688,195400.844,210734.672,227925.391,194020.391,-0.070,0.997,0.048,-2.563,1.770,-0.183,73.333,21568.000,1.000
191313.328,307194.625,440550.594,711217.313,196280.781,211001.016,228524.156,194229.609,-0.069,0.997,0.053,-2.563,2.258,0.061,73.333,21569.000,1.000
191373.953,307664.531,440858.594,711233.813,197078.828,211139.781,228937.125,194281.281,-0.070,0.998,0.051,-2.533,2.502,0.153,73.333,21570.000,1.000
191208.719,307463.719,440592.781,711206.438,196741.859,210984.656,228635.016,194127.859,-0.072,0.997,0.053,-2.563,2.747,0.336,73.333,21571.000,1.000
191038.578,306884.000,440114.625,711170.563,195746.578,210745.484,228033.672,193971.391,-0.076,0.997,0.054,-2.472,3.021,0.336,73.333,21572.000,1.000
191073.719,306663.188,440037.125,711173.875,195404.594,210738.156,227926.922,194023.172,-0.079,0.998,0.054,-2.472,3.082,0.275,73.333,21573.000,1.000
191313.422,307197.844,440527.063,711216.250,196281.313,211002.797,228521.203,194229.875,-0.080,0.999,0.052,-2.441,3.418,0.183,73.333,21574.000,1.000
191370.641,307665.969,440831.219,711234.625,197085.078,211139.859,228934.453,194280.563,-0.080,1.000,0.053,-2.533,3.540,0.183,73.333,21575.000,1.000
191202.734,307456.656,440555.219,711205.125,196745.875,210977.047,228626.531,194119.813,-0.078,1.002,0.055,-2.655,3.601,0.061,73.333,21576.000,1.000
191036.531,306879.094,440080.469,711170.938,195752.656,210742.094,228025.984,193969.250,-0.079,1.003,0.061,-2.777,3.632,0.031,73.333,21577.000,1.000
191072.375,306664.594,440000.906,711174.313,195405.484,210734.844,227915.031,194024.234,-0.080,1.005,0.059,-2.930,3.754,0.122,73.333,21578.000,1.000
191314.766,307198.000,440493.719,711217.438,196278.016,211002.094,228512.172,194232.016,-0.080,1.005,0.059,-3.082,3.845,0.122,73.333,21579.000,1.000
191371.078,307658.531,440802.625,711235.063,197082.141,211141.563,228929.625,194281.281,-0.079,1.007,0.057,-3.143,3.906,0.183,73.333,21580.000,1.000
191203.813,307450.219,440538.875,711208.688,196754.453,210988.047,228632.250,194128.578,-0.080,1.008,0.055,-3.357,3.998,0.214,73.333,21581.000,1.000
191030.891,306870.438,440061.688,711172.625,195758.281,210747.281,228027.953,193973.281,-0.081,1.009,0.058,-3.479,4.120,0.336,73.333,21582.000,1.000
191065.938,306647.344,439980.625,711175.125,195408.703,210738.422,227916.016,194029.156,-0.083,1.011,0.058,-3.693,4.089,0.397,73.333,21583.000,1.000
191308.406,307178.781,440473.406,711219.063,196278.094,211002.797,228512.891,194239.000,-0.082,1.014,0.061,-3.967,4.150,0.458,73.333,21584.000,1.000
191362.234,307637.438,440779.469,711236.500,197081.422,211137.266,228927.297,194286.203,-0.081,1.013,0.061,-4.303,4.242,0.549,73.333,21585.000,1.000
191196.656,307436.563,440515.719,711209.625,196756.344,210981.438,228633.328,194132.516,-0.083,1.011,0.064,-4.669,4.333,0.610,73.333,21586.000,1.000
191030.172,306858.250,440038.375,711173.375,195762.125,210743.078,228033.047,193979.094,-0.082,1.011,0.064,-4.974,4.333,0.671,73.333,21587.000,1.000
191064.516,306637.781,439953.688,711173.625,195406.641,210733.234,227915.109,194028.266,-0.083,1.009,0.067,-5.157,4.303,0.732,73.333,21588.000,1.000
191299.016,307160.719,440433.906,711214.688,196262.359,210991.000,228499.391,194230.500,-0.083,1.009,0.065,-5.432,4.364,0.916,73.333,21589.000,1.000
191363.844,307631.531,440748.719,711234.688,197074.797,211137.188,228923.813,194287.719,-0.083,1.006,0.065,-5.554,4.333,1.068,73.333,21590.000,1.000
191208.547,307446.281,440494.875,711211.188,196764.469,210991.094,228636.906,194138.234,-0.082,1.005,0.068,-5.707,4.364,1.068,73.333,21591.000,1.000
191039.391,306873.563,440017.281,711175.563,195771.875,210751.750,228035.016,193981.500,-0.081,1.006,0.068,-5.890,4.456,1.221,73.333,21592.000,1.000
191068.625,306650.469,439927.781,711176.125,195409.063,210737.703,227914.844,194031.219,-0.081,1.003,0.069,-5.890,4.547,1.343,73.333,21593.000,1.000
191303.141,307180.125,440411.906,711216.813,196265.219,210995.828,228498.500,194231.125,-0.081,1.002,0.068,-5.920,4.608,1.404,73.333,21594.000,1.000
191359.375,307640.406,440723.594,711233.688,197075.703,211136.828,228920.141,194281.906,-0.081,0.999,0.071,-6.195,4.669,1.526,73.333,21595.000,1.000
191203.891,307453.969,440467.344,711209.000,196763.938,210988.234,228634.031,194133.047,-0.080,0.998,0.071,-6.165,4.730,1.404,73.333,21596.000,1.000
191036.172,306892.688,439996.344,711173.625,195773.938,210751.922,228036.797,193982.484,-0.081,0.997,0.069,-6.012,4.791,1.495,73.333,21597.000,1.000
191063.250,306661.563,439903.719,711173.563,195403.344,210736.188,227912.172,194029.063,-0.081,0.994,0.070,-5.829,4.913,1.556,73.333,21598.000,1.000
191301.531,307181.906,440384.719,711214.125,196256.469,210997.344,228497.328,194232.734,-0.080,0.993,0.072,-5.676,5.005,1.556,73.333,21599.000,1.000
191363.484,307660.969,440699.000,711234.250,197071.766,211138.250,228921.578,194286.828,-0.080,0.992,0.073,-5.585,5.066,1.434,73.333,21600.000,1.000
191205.422,307477.688,440446.406,711209.375,196763.844,210987.063,228636.453,194134.563,-0.080,0.989,0.073,-5.249,5.219,1.373,73.333,21601.000,1.000
